

# Pol at half tranmission, normal meas
# Scan parameters: power 16.000000 dBm, bandwidth 1.500000 Hz
# Frequency [MHz]	avg noise	std noise	peak value
3851.000000	0.092171	0.091434	818.378000
3853.000000	0.083058	0.091319	835.907754
3855.000000	0.081519	0.085521	541.674107
3857.000000	0.095695	0.093440	545.558322
3859.000000	0.082014	0.073083	780.496921
3861.000000	0.078310	0.069919	663.416650
3863.000000	0.078457	0.088435	324.410708
3865.000000	0.083207	0.084109	645.426089
3867.000000	0.078716	0.078232	838.697158
3869.000000	0.094640	0.108198	577.200066
3871.000000	0.094822	0.109553	493.173653
3873.000000	0.077194	0.075198	835.569017
3875.000000	0.095814	0.096492	755.144667
3877.000000	0.102188	0.155748	479.394544
3879.000000	0.083463	0.101122	787.422451
3881.000000	0.089225	0.083696	930.723949
3883.000000	0.095543	0.099981	700.799358
3885.000000	0.085441	0.081712	404.511779
3887.000000	0.083582	0.099506	741.133225
3889.000000	0.125801	0.131245	750.295517
3891.000000	0.095968	0.111929	411.466197
3893.000000	0.087442	0.096148	547.426232
3895.000000	0.097203	0.098668	787.191024
3897.000000	0.095457	0.098140	613.577298
3899.000000	0.090380	0.099100	286.536334
3901.000000	0.094586	0.101036	634.416780
3903.000000	0.092779	0.089477	712.710899
3905.000000	0.096111	0.104736	485.947647
3907.000000	0.102794	0.105319	499.929245
3909.000000	0.085194	0.091507	703.939073
3911.000000	0.100261	0.100769	594.042319
3913.000000	0.102966	0.111108	290.584684
3915.000000	0.096469	0.091855	587.116547
3917.000000	0.098039	0.096534	687.505069
3919.000000	0.094409	0.089709	458.971245
3921.000000	0.099505	0.111432	355.984658
3923.000000	0.091564	0.093795	540.758194
3925.000000	0.089937	0.092013	444.827640
3927.000000	0.100965	0.108959	203.469306
3929.000000	0.092454	0.094844	292.221206
3931.000000	0.088106	0.092635	385.324823
3933.000000	0.098067	0.096819	336.527771
3935.000000	0.102228	0.098295	232.352491
3937.000000	0.095480	0.110273	428.724488
3939.000000	0.093367	0.098217	459.480538
3941.000000	0.107969	0.105359	267.222066
3943.000000	0.087585	0.086727	330.797810
3945.000000	0.091389	0.089321	471.620923
3947.000000	0.087353	0.084488	394.593577
3949.000000	0.095966	0.104296	214.974362
3951.000000	0.093731	0.086740	408.464432
3953.000000	0.097436	0.104913	417.352791
3955.000000	0.101019	0.096158	244.205974
3957.000000	0.087335	0.084615	209.041804
3959.000000	0.091844	0.095950	298.178151
3961.000000	0.091257	0.096692	265.075055
3963.000000	0.105314	0.114491	113.736955
3965.000000	0.098773	0.093746	230.680012
3967.000000	0.088198	0.090742	241.159600
3969.000000	0.092857	0.100675	152.417080
3971.000000	0.088966	0.095034	122.158069
3973.000000	0.087393	0.088782	192.139762
3975.000000	0.095542	0.089387	173.120012
3977.000000	0.083965	0.080684	100.274273
3979.000000	0.090131	0.081028	155.277825
3981.000000	0.106571	0.107167	226.919190
3983.000000	0.095952	0.104745	198.560154
3985.000000	0.092340	0.093720	144.141101
3987.000000	0.089097	0.090539	288.264091
3989.000000	0.081565	0.078001	321.136825
3991.000000	0.085688	0.087861	199.215343
3993.000000	0.090989	0.092413	211.084281
3995.000000	0.089080	0.085370	338.430894
3997.000000	0.102966	0.106402	300.464552
3999.000000	0.105260	0.117762	170.378941
4001.000000	0.101334	0.098144	371.608336
4003.000000	0.106233	0.117042	399.601924
4005.000000	0.085830	0.088497	269.541027
4007.000000	0.099511	0.097834	234.284498
4009.000000	0.092656	0.101343	290.486404
4011.000000	0.086527	0.073488	214.654296
4013.000000	0.094788	0.078978	95.327486
4015.000000	0.092500	0.079736	186.233550
4017.000000	0.089525	0.083246	206.618150
4019.000000	0.088500	0.079145	134.040266
4021.000000	0.090254	0.076396	86.315401
4023.000000	0.093305	0.096887	131.018704
4025.000000	0.090420	0.091920	91.691857
4027.000000	0.095285	0.086564	39.884802
4029.000000	0.086058	0.073226	42.583589
4031.000000	0.094186	0.087935	46.486399
4033.000000	0.093080	0.093892	30.619588
4035.000000	0.090315	0.085015	17.074294
4037.000000	0.090954	0.084021	20.195992
4039.000000	0.087002	0.087538	12.610735
4041.000000	0.081277	0.076000	8.265742
4043.000000	0.089090	0.090248	5.766821
4045.000000	0.089720	0.082420	7.421771
4047.000000	0.104051	0.107021	6.348695
4049.000000	0.083297	0.087823	5.568606
4051.000000	0.087597	0.089631	16.955926
4053.000000	0.087985	0.081810	25.565040
4055.000000	0.094119	0.096049	20.928582
4057.000000	0.092943	0.106955	16.032715
4059.000000	0.077579	0.079718	25.456045
4061.000000	0.101711	0.101108	19.997935
4063.000000	0.096405	0.096752	16.670206
4065.000000	0.081488	0.080940	43.762821
4067.000000	0.088318	0.087067	55.817061
4069.000000	0.083597	0.088851	49.081028
4071.000000	0.092934	0.093472	36.022225
4073.000000	0.091690	0.089099	77.182014
4075.000000	0.094636	0.094639	75.594557
4077.000000	0.096857	0.100833	41.035648
4079.000000	0.095658	0.104174	79.656062
4081.000000	0.092108	0.097662	90.624464
4083.000000	0.096181	0.100204	89.159340
4085.000000	0.089424	0.088496	70.966060
4087.000000	0.100741	0.099546	125.820189
4089.000000	0.089036	0.091440	133.659608
4091.000000	0.084989	0.079485	85.675139
4093.000000	0.103317	0.100893	94.541172
4095.000000	0.098176	0.106023	133.211112
4097.000000	0.088887	0.081836	83.701536
4099.000000	0.089990	0.088458	34.089282
4101.000000	0.092980	0.074857	55.381310
4103.000000	0.095762	0.092038	44.277212
4105.000000	0.090232	0.093709	22.699571
4107.000000	0.095580	0.100520	13.995983
4109.000000	0.078100	0.080398	15.194617
4111.000000	0.078208	0.082893	7.362184
4113.000000	0.085218	0.086508	3.138452
4115.000000	0.087444	0.085667	5.384079
4117.000000	0.095784	0.102038	7.592150
4119.000000	0.086885	0.084035	7.581952
4121.000000	0.085023	0.095465	4.729103
4123.000000	0.090697	0.091249	8.501117
4125.000000	0.072763	0.072808	8.822934
4127.000000	0.088053	0.090787	3.930037
4129.000000	0.083881	0.089496	5.903601
4131.000000	0.085680	0.084163	6.370351
4133.000000	0.094080	0.109874	6.690159
4135.000000	0.086043	0.077513	4.140426
4137.000000	0.095954	0.095396	7.726018
4139.000000	0.107377	0.113172	16.674731
4141.000000	0.094393	0.094394	11.282418
4143.000000	0.093572	0.090760	21.976771
4145.000000	0.082441	0.080149	33.825301
4147.000000	0.081280	0.082070	28.641611
4149.000000	0.086275	0.090047	13.154844
4151.000000	0.091734	0.081741	36.808007
4153.000000	0.071824	0.071298	39.348965
4155.000000	0.071330	0.069911	32.090537
4157.000000	0.077565	0.069392	42.230192
4159.000000	0.076466	0.074980	83.772589
4161.000000	0.076063	0.073439	89.685623
4163.000000	0.068545	0.062001	58.797047
4165.000000	0.077732	0.069512	116.699507
4167.000000	0.071936	0.076809	151.198821
4169.000000	0.070376	0.084466	113.933501
4171.000000	0.078356	0.073573	91.668949
4173.000000	0.074193	0.070609	145.850284
4175.000000	0.073767	0.076793	125.421495
4177.000000	0.074585	0.072220	67.169382
4179.000000	0.072514	0.075239	85.121609
4181.000000	0.073435	0.074990	96.254146
4183.000000	0.072139	0.066017	73.220320
4185.000000	0.079245	0.076291	49.240141
4187.000000	0.075462	0.080156	90.764152
4189.000000	0.075600	0.074178	85.458376
4191.000000	0.068934	0.062669	53.737051
4193.000000	0.063113	0.061814	79.445274
4195.000000	0.068929	0.062270	128.970289
4197.000000	0.060253	0.056340	101.487858
4199.000000	0.075676	0.075950	48.087646
4201.000000	0.065208	0.067916	94.962508
4203.000000	0.064554	0.063021	98.772730
4205.000000	0.060582	0.069199	52.079111
4207.000000	0.073222	0.073143	47.544771
4209.000000	0.071402	0.062013	68.052768
4211.000000	0.068759	0.062464	64.517657
4213.000000	0.062153	0.059694	35.090080
4215.000000	0.063651	0.059975	75.639848
4217.000000	0.065977	0.078603	100.740109
4219.000000	0.062272	0.064956	64.177149
4221.000000	0.061731	0.055226	48.493876
4223.000000	0.060495	0.057873	66.305882
4225.000000	0.053443	0.054951	44.921067
4227.000000	0.061399	0.067521	20.887390
4229.000000	0.058773	0.062799	27.788279
4231.000000	0.056531	0.055264	33.097606
4233.000000	0.054292	0.058989	29.276784
4235.000000	0.059855	0.067886	22.630591
4237.000000	0.061523	0.061390	59.128003
4239.000000	0.056843	0.057815	74.634755
4241.000000	0.055168	0.052337	48.886629
4243.000000	0.054760	0.049743	64.256771
4245.000000	0.056186	0.060418	102.758076
4247.000000	0.060557	0.065387	86.856098
4249.000000	0.060714	0.065475	56.799459
4251.000000	0.066567	0.061224	141.170399
4253.000000	0.060869	0.056384	181.946768
4255.000000	0.065783	0.070303	135.809471
4257.000000	0.060418	0.057725	151.038670
4259.000000	0.056101	0.059110	262.259972
4261.000000	0.059422	0.054566	199.639945
4263.000000	0.068429	0.065941	84.131872
4265.000000	0.058806	0.054677	150.935647
4267.000000	0.068715	0.077844	166.092383
4269.000000	0.064559	0.063532	111.160618
4271.000000	0.061451	0.057449	85.761788
4273.000000	0.065478	0.063242	152.628695
4275.000000	0.058807	0.058979	139.633295
4277.000000	0.063459	0.055169	80.637446
4279.000000	0.067254	0.067445	103.662058
4281.000000	0.057345	0.057396	127.659891
4283.000000	0.051108	0.050392	87.604285
4285.000000	0.059107	0.060084	56.076224
4287.000000	0.053663	0.061958	88.064772
4289.000000	0.057818	0.058540	75.263742
4291.000000	0.054659	0.052963	39.588011
4293.000000	0.059481	0.064059	44.579680
4295.000000	0.056182	0.055755	60.765101
4297.000000	0.062122	0.066953	55.134017
4299.000000	0.056369	0.056634	30.226683
4301.000000	0.054119	0.053445	44.435109
4303.000000	0.050590	0.053118	35.980263
4305.000000	0.052145	0.051940	20.711293
4307.000000	0.049392	0.048002	13.654108
4309.000000	0.055810	0.053657	15.715751
4311.000000	0.052224	0.047962	7.643302
4313.000000	0.059273	0.059356	3.947449
4315.000000	0.052298	0.049872	6.817459
4317.000000	0.051569	0.054228	8.340082
4319.000000	0.055246	0.049338	8.566252
4321.000000	0.047310	0.042641	8.709022
4323.000000	0.054632	0.057259	15.097679
4325.000000	0.050873	0.049561	20.312046
4327.000000	0.051232	0.049427	12.444517
4329.000000	0.053021	0.051392	20.490707
4331.000000	0.056106	0.053865	20.367783
4333.000000	0.056435	0.057625	14.880086
4335.000000	0.048851	0.051022	12.684610
4337.000000	0.048929	0.049024	17.148050
4339.000000	0.051433	0.053502	15.502647
4341.000000	0.051366	0.051580	7.845940
4343.000000	0.053861	0.052381	7.909724
4345.000000	0.049514	0.049204	9.116801
4347.000000	0.062700	0.062085	9.430224
4349.000000	0.053077	0.050244	5.392512
4351.000000	0.057625	0.052802	15.098867
4353.000000	0.065712	0.063813	23.266181
4355.000000	0.059376	0.059245	21.374752
4357.000000	0.060377	0.058240	26.538711
4359.000000	0.061270	0.069539	43.895503
4361.000000	0.052077	0.048485	39.764314
4363.000000	0.056229	0.053000	17.769001
4365.000000	0.052460	0.051810	27.290775
4367.000000	0.055951	0.058917	34.995584
4369.000000	0.059345	0.065245	24.700265
4371.000000	0.058688	0.061565	20.845190
4373.000000	0.054055	0.056124	32.580030
4375.000000	0.057709	0.051182	27.150838
4377.000000	0.055041	0.057166	13.463654
4379.000000	0.053186	0.046505	19.814729
4381.000000	0.050139	0.059468	20.941503
4383.000000	0.058916	0.062569	15.538020
4385.000000	0.056257	0.050917	13.173617
4387.000000	0.059851	0.065046	17.719342
4389.000000	0.059591	0.069199	17.445222
4391.000000	0.058390	0.064617	5.784067
4393.000000	0.059133	0.053951	7.653498
4395.000000	0.060485	0.063626	10.921247
4397.000000	0.062166	0.056910	7.473240
4399.000000	0.060836	0.059422	3.817565
4401.000000	0.058550	0.054932	7.713006
4403.000000	0.058626	0.059029	6.756947
4405.000000	0.058592	0.064518	4.508504
4407.000000	0.055648	0.059224	3.447232
4409.000000	0.058110	0.055956	8.146342
4411.000000	0.062169	0.064013	8.514965
4413.000000	0.061551	0.060436	6.199049
4415.000000	0.061360	0.061439	6.609808
4417.000000	0.069176	0.064389	7.619233
4419.000000	0.064632	0.058192	5.349934
4421.000000	0.066656	0.074526	3.119360
4423.000000	0.060705	0.061756	6.562077
4425.000000	0.065464	0.058833	8.306489
4427.000000	0.063915	0.067292	9.389638
4429.000000	0.066473	0.068849	17.039487
4431.000000	0.068616	0.069684	25.151492
4433.000000	0.062847	0.067813	28.425638
4435.000000	0.070494	0.075449	26.117955
4437.000000	0.069341	0.068376	43.934637
4439.000000	0.071390	0.069941	51.781200
4441.000000	0.069857	0.065224	34.646948
4443.000000	0.073328	0.074638	51.291123
4445.000000	0.068861	0.065975	76.590856
4447.000000	0.067845	0.065820	57.346116
4449.000000	0.074869	0.068607	25.595388
4451.000000	0.075752	0.076480	50.064879
4453.000000	0.072661	0.064553	47.290583
4455.000000	0.070253	0.066382	27.395790
4457.000000	0.066036	0.064247	14.801275
4459.000000	0.072835	0.070237	18.882100
4461.000000	0.078143	0.074876	11.305273
4463.000000	0.085127	0.079232	5.703935
4465.000000	0.077378	0.081103	11.078271
4467.000000	0.076639	0.084244	19.540070
4469.000000	0.075234	0.069766	18.421298
4471.000000	0.073287	0.071140	13.119508
4473.000000	0.076662	0.074568	20.202149
4475.000000	0.063750	0.064959	19.371619
4477.000000	0.076151	0.073600	10.021257
4479.000000	0.073673	0.076452	12.447013
4481.000000	0.077538	0.080136	19.862424
4483.000000	0.071631	0.082442	15.874556
4485.000000	0.075517	0.071874	11.908185
4487.000000	0.085840	0.080998	21.197798
4489.000000	0.071613	0.069259	24.520562
4491.000000	0.082901	0.076991	17.513405
4493.000000	0.074768	0.074595	14.581548
4495.000000	0.071783	0.074147	22.608586
4497.000000	0.081949	0.083868	11.400674
4499.000000	0.081287	0.079338	4.077591
4501.000000	0.074350	0.067924	7.043261
4503.000000	0.075021	0.077748	6.910313
4505.000000	0.079518	0.082725	7.025081
4507.000000	0.079638	0.083609	7.702925
4509.000000	0.068737	0.060348	9.502566
4511.000000	0.072087	0.072814	9.227830
4513.000000	0.080891	0.077990	6.987602
4515.000000	0.075719	0.082210	15.111226
4517.000000	0.067749	0.071231	20.750465
4519.000000	0.076667	0.072549	11.996100
4521.000000	0.084122	0.084470	10.066808
4523.000000	0.076484	0.075674	14.637009
4525.000000	0.060843	0.061767	18.362063
4527.000000	0.073766	0.077027	9.896386
4529.000000	0.073153	0.075412	24.492923
4531.000000	0.073454	0.070247	37.273157
4533.000000	0.069476	0.067971	31.731555
4535.000000	0.062228	0.062323	22.134981
4537.000000	0.072062	0.068200	35.281974
4539.000000	0.071813	0.064001	28.741293
4541.000000	0.067739	0.065043	12.078790
4543.000000	0.072525	0.071814	9.314169
4545.000000	0.069937	0.070663	7.676881
4547.000000	0.068130	0.068833	7.137629
4549.000000	0.065847	0.066545	4.110799
4551.000000	0.063408	0.064372	14.711668
4553.000000	0.072645	0.072955	19.673774
4555.000000	0.069100	0.067801	14.807230
4557.000000	0.077596	0.077145	17.763546
4559.000000	0.061706	0.062202	32.055774
4561.000000	0.063814	0.053015	28.680779
4563.000000	0.069343	0.071604	9.913532
4565.000000	0.071357	0.082511	13.185042
4567.000000	0.068031	0.063480	12.987493
4569.000000	0.068686	0.068748	6.711714
4571.000000	0.068523	0.072763	8.972799
4573.000000	0.069702	0.063104	21.643442
4575.000000	0.064701	0.056584	22.522773
4577.000000	0.065405	0.073597	17.959884
4579.000000	0.065492	0.064914	26.429001
4581.000000	0.072429	0.077754	37.974670
4583.000000	0.061751	0.053919	35.323194
4585.000000	0.067667	0.065700	23.911231
4587.000000	0.058484	0.062551	45.951694
4589.000000	0.056113	0.053720	50.085981
4591.000000	0.068988	0.070603	38.708770
4593.000000	0.060679	0.058059	50.453379
4595.000000	0.070002	0.072814	74.902573
4597.000000	0.068004	0.067042	60.073113
4599.000000	0.070778	0.077646	33.608095
4601.000000	0.061070	0.061464	73.507402
4603.000000	0.061701	0.061917	69.892076
4605.000000	0.056857	0.053471	36.523766
4607.000000	0.063679	0.065631	39.642022
4609.000000	0.061166	0.059516	67.885757
4611.000000	0.058137	0.060859	65.263639
4613.000000	0.069485	0.069099	38.416571
4615.000000	0.056204	0.057171	70.348758
4617.000000	0.069744	0.063535	96.308504
4619.000000	0.058333	0.059501	77.174289
4621.000000	0.058806	0.067720	71.054181
4623.000000	0.061535	0.059819	117.697687
4625.000000	0.056230	0.055090	117.238439
4627.000000	0.065411	0.069719	55.437276
4629.000000	0.058172	0.058679	71.428439
4631.000000	0.055716	0.059298	97.128080
4633.000000	0.064015	0.065329	76.432963
4635.000000	0.053889	0.049945	52.147525
4637.000000	0.060134	0.058519	99.854422
4639.000000	0.060005	0.054018	113.618694
4641.000000	0.065573	0.063207	73.865704
4643.000000	0.063779	0.064705	101.931740
4645.000000	0.058781	0.053054	157.730855
4647.000000	0.067530	0.070073	140.679304
4649.000000	0.058139	0.054373	76.152083
4651.000000	0.060631	0.060600	155.346154
4653.000000	0.062144	0.072917	155.346301
4655.000000	0.063779	0.070508	103.874701
4657.000000	0.068329	0.070264	113.857138
4659.000000	0.059914	0.069372	171.803091
4661.000000	0.056081	0.054531	168.573206
4663.000000	0.070890	0.074138	86.209691
4665.000000	0.060715	0.062471	151.583506
4667.000000	0.072918	0.073287	174.543679
4669.000000	0.068677	0.062678	118.330109
4671.000000	0.072004	0.066047	91.731591
4673.000000	0.078209	0.074683	160.095841
4675.000000	0.071595	0.076042	141.159220
4677.000000	0.072945	0.083096	85.746083
4679.000000	0.073457	0.072322	135.037020
4681.000000	0.077104	0.075653	164.431962
4683.000000	0.067374	0.077728	113.609621
4685.000000	0.070392	0.073625	66.543418
4687.000000	0.075072	0.070969	105.983792
4689.000000	0.069340	0.072611	119.137931
4691.000000	0.070608	0.070038	74.015666
4693.000000	0.078140	0.071586	112.616809
4695.000000	0.069797	0.074473	173.970420
4697.000000	0.075164	0.071506	169.280278
4699.000000	0.072024	0.067697	87.125826
4701.000000	0.076194	0.072110	187.929278
4703.000000	0.073892	0.069586	188.004384
4705.000000	0.066698	0.067632	101.900280
4707.000000	0.069381	0.072795	93.293087
4709.000000	0.075494	0.080657	138.621147
4711.000000	0.075760	0.071394	142.211090
4713.000000	0.077688	0.079782	70.912485
4715.000000	0.076980	0.076527	141.278121
4717.000000	0.078894	0.073332	205.328196
4719.000000	0.081265	0.071922	167.572624
4721.000000	0.074603	0.064705	131.142676
4723.000000	0.070338	0.062429	204.269386
4725.000000	0.073450	0.073371	182.327230
4727.000000	0.067496	0.078606	121.857713
4729.000000	0.073155	0.071440	216.314459
4731.000000	0.073963	0.080533	310.252173
4733.000000	0.078290	0.094278	257.424616
4735.000000	0.069878	0.065475	186.754744
4737.000000	0.070901	0.075776	327.765541
4739.000000	0.086931	0.095417	347.368062
4741.000000	0.072965	0.077365	197.990142
4743.000000	0.081527	0.077969	254.434455
4745.000000	0.069948	0.069259	336.872146
4747.000000	0.071416	0.068836	235.945924
4749.000000	0.080530	0.075169	112.847938
4751.000000	0.076561	0.076105	211.009711
4753.000000	0.076282	0.082775	216.557248
4755.000000	0.079963	0.080554	131.586647
4757.000000	0.076685	0.075199	129.946705
4759.000000	0.076378	0.072649	212.774635
4761.000000	0.073978	0.072832	183.639580
4763.000000	0.071349	0.071254	94.167411
4765.000000	0.084110	0.086337	178.249320
4767.000000	0.081398	0.081636	235.382786
4769.000000	0.083304	0.082728	179.620106
4771.000000	0.072458	0.068230	150.874978
4773.000000	0.076243	0.070805	224.477271
4775.000000	0.068154	0.064769	200.849572
4777.000000	0.075507	0.074826	115.388944
4779.000000	0.081084	0.084872	169.696454
4781.000000	0.071416	0.069676	185.497225
4783.000000	0.071152	0.072961	125.748550
4785.000000	0.077069	0.077255	71.348142
4787.000000	0.071367	0.062978	122.621373
4789.000000	0.084977	0.082518	112.050868
4791.000000	0.065207	0.065117	63.818805
4793.000000	0.071022	0.070887	101.639884
4795.000000	0.075532	0.066080	183.636914
4797.000000	0.090452	0.091852	191.440558
4799.000000	0.066828	0.069173	117.335380
4801.000000	0.076984	0.071994	251.823359
4803.000000	0.081731	0.075874	292.624025
4805.000000	0.084164	0.083458	219.806433
4807.000000	0.082002	0.078085	202.661918
4809.000000	0.077272	0.078801	349.805881
4811.000000	0.082465	0.086169	310.652151
4813.000000	0.073425	0.073492	169.434921
4815.000000	0.082259	0.077220	374.368423
4817.000000	0.075991	0.078583	535.839161
4819.000000	0.089020	0.088470	421.133283
4821.000000	0.084356	0.094694	370.363616
4823.000000	0.084196	0.085665	657.592706
4825.000000	0.086680	0.122115	593.196542
4827.000000	0.085059	0.088699	293.833032
4829.000000	0.087685	0.094453	390.656642
4831.000000	0.087516	0.086528	471.585107
4833.000000	0.083078	0.079765	372.400711
