# A high strength magnet has been placed around the sample, around 300mT bias, excitation is perp to this

# Scan parameters: power 16.000000 dBm, bandwidth 1.500000 Hz
# Frequency [MHz]	avg noise	std noise	peak value
3900.000000	6.394149	1.383192	853.294925
3901.000000	0.162040	0.154982	954.045329
3902.000000	0.184540	0.172963	528.135477
3903.000000	0.180868	0.191221	1020.083238
3904.000000	0.176182	0.175652	831.432682
3905.000000	0.166228	0.180794	651.559196
3906.000000	0.173759	0.161470	983.241065
3907.000000	0.226612	0.234384	616.427279
3908.000000	0.263126	0.236409	673.135951
3909.000000	0.204543	0.211910	766.090940
3910.000000	0.202390	0.224205	398.487867
3911.000000	0.181140	0.182447	581.940662
3912.000000	0.166191	0.154096	607.880328
3913.000000	0.205844	0.187180	252.728606
3914.000000	0.176472	0.182796	503.815372
3915.000000	0.201688	0.204598	420.287011
3916.000000	0.218051	0.207272	266.474806
3917.000000	0.190619	0.178268	456.784226
3918.000000	0.177326	0.166908	338.753965
3919.000000	0.204596	0.216307	298.777610
3920.000000	0.176018	0.177059	430.527580
3921.000000	0.212854	0.220593	229.235937
3922.000000	0.199926	0.192059	267.946731
3923.000000	0.195216	0.204706	302.379127
3924.000000	0.207693	0.220696	103.771824
3925.000000	0.221469	0.205270	185.612405
3926.000000	0.452869	0.452804	144.835256
3927.000000	0.228931	0.234964	69.417958
3928.000000	0.205614	0.205788	115.407214
3929.000000	0.197468	0.202030	100.962807
3930.000000	0.253345	0.274889	77.350866
3931.000000	0.209198	0.212501	143.676234
3932.000000	0.253790	0.242260	112.445096
3933.000000	0.224833	0.225110	141.096487
3934.000000	0.228255	0.209996	195.609676
3935.000000	0.227081	0.205823	103.638630
3936.000000	0.224858	0.231155	151.569071
3937.000000	0.229949	0.233890	149.433561
3938.000000	0.229105	0.212754	56.884657
3939.000000	0.304346	0.305007	110.912395
3940.000000	0.305510	0.308973	69.198982
3941.000000	0.328834	0.291145	40.080595
3942.000000	0.394636	0.376390	47.013155
3943.000000	0.316769	0.328854	27.671518
3944.000000	0.335229	0.321261	18.650721
3945.000000	0.352560	0.347715	16.116166
3946.000000	0.351869	0.354669	2.019852
3947.000000	0.459131	0.452135	3.762468
3948.000000	0.368463	0.358734	1.488645
3949.000000	0.468557	0.452596	1.227385
3950.000000	0.323280	0.345164	1.259768
3951.000000	0.331883	0.324973	2.108178
3952.000000	0.336110	0.314692	2.994763
3953.000000	0.299196	0.322680	2.536598
3954.000000	0.308752	0.312504	6.509557
3955.000000	0.319593	0.340612	1.686761
3956.000000	0.269384	0.257848	5.399167
3957.000000	0.255312	0.235073	5.984262
3958.000000	0.249310	0.214645	8.151796
3959.000000	0.224048	0.233633	12.015438
3960.000000	0.215890	0.222581	4.060164
3961.000000	0.210346	0.203693	7.137978
3962.000000	0.199932	0.208660	8.515202
3963.000000	0.238461	0.223642	9.526214
3964.000000	0.214514	0.220355	22.958771
3965.000000	0.198814	0.188548	26.779051
3966.000000	0.214094	0.192126	28.975891
3967.000000	0.239601	0.259339	42.805466
3968.000000	0.209474	0.197821	26.558474
3969.000000	0.201862	0.217210	40.488487
3970.000000	0.249337	0.244041	55.761489
3971.000000	0.266163	0.261983	33.560441
3972.000000	0.221993	0.205025	50.594192
3973.000000	0.258758	0.270293	57.575435
3974.000000	0.242746	0.230454	27.511553
3975.000000	0.256440	0.259572	49.580275
3976.000000	0.357328	0.368689	55.122076
3977.000000	0.253132	0.254862	34.030293
3978.000000	0.304691	0.281646	62.683295
3979.000000	0.250228	0.247767	53.282415
3980.000000	0.199160	0.205559	27.891538
3981.000000	0.238678	0.241927	74.989775
3982.000000	0.251554	0.283966	54.022768
3983.000000	0.233795	0.232866	66.791219
3984.000000	0.210856	0.208291	104.603508
3985.000000	0.193646	0.190922	70.693945
3986.000000	0.194645	0.207650	148.368591
3987.000000	0.207119	0.211583	188.630628
3988.000000	0.164820	0.157914	101.454418
3989.000000	0.217608	0.184705	225.267507
3990.000000	0.178130	0.167116	216.080014
3991.000000	0.158295	0.156130	147.024700
3992.000000	0.186464	0.202189	261.793982
3993.000000	0.180315	0.166447	207.722269
3994.000000	0.217514	0.214094	176.158317
3995.000000	0.172118	0.167732	242.094867
3996.000000	0.213848	0.195938	134.180830
3997.000000	0.206896	0.194112	160.650037
3998.000000	0.199001	0.194933	174.908430
3999.000000	0.183311	0.172595	76.150398
4000.000000	0.220090	0.212823	123.719312
4001.000000	0.189944	0.209068	108.278204
4002.000000	0.179379	0.169223	60.634312
4003.000000	0.191897	0.181697	108.018171
4004.000000	0.204201	0.199706	88.942547
4005.000000	0.237886	0.235906	63.533667
4006.000000	0.206964	0.212048	111.888337
4007.000000	0.211495	0.223839	64.991819
4008.000000	0.160353	0.155093	74.343067
4009.000000	0.222403	0.218245	89.867584
4010.000000	0.207973	0.227999	50.512423
4011.000000	0.183703	0.157134	63.399901
4012.000000	0.186257	0.177825	74.091611
4013.000000	0.194569	0.188792	37.829224
4014.000000	0.208014	0.190321	71.787173
4015.000000	0.191293	0.189255	69.871448
4016.000000	0.215681	0.216811	44.063193
4017.000000	0.242953	0.240261	100.514943
4018.000000	0.206152	0.192852	78.777690
4019.000000	0.218819	0.216414	81.418387
4020.000000	0.214605	0.207077	117.525739
4021.000000	0.218244	0.226873	61.035053
4022.000000	0.198449	0.201760	72.127385
4023.000000	0.217304	0.215755	92.009463
4024.000000	0.244217	0.250393	51.561454
4025.000000	0.229726	0.243513	76.395388
4026.000000	0.210671	0.215401	66.341958
4027.000000	0.245795	0.233397	43.818711
4028.000000	0.310137	0.293105	76.600638
4029.000000	0.215083	0.211175	65.416366
4030.000000	0.253194	0.255454	60.992192
4031.000000	0.272906	0.309035	119.386065
4032.000000	0.254856	0.244866	98.201628
4033.000000	0.243527	0.262865	111.008950
4034.000000	0.250653	0.250123	160.364657
4035.000000	0.259671	0.268459	86.165414
4036.000000	0.279318	0.292116	126.900935
4037.000000	0.372463	0.323515	127.521610
4038.000000	0.265324	0.268329	62.362412
4039.000000	0.291168	0.289760	121.276619
4040.000000	0.265107	0.232390	105.671017
4041.000000	0.355550	0.355483	66.278512
4042.000000	0.285998	0.330817	134.708835
4043.000000	0.317658	0.310494	101.322019
4044.000000	0.358370	0.325714	98.078292
4045.000000	0.427477	0.399164	190.653092
4046.000000	0.348332	0.328108	117.381753
4047.000000	0.361070	0.333074	157.251261
4048.000000	0.445173	0.404222	244.923055
4049.000000	0.424363	0.404260	107.293109
4050.000000	0.490095	0.572106	290.671697
4051.000000	0.471084	0.493486	328.067161
4052.000000	0.486565	0.473203	206.770408
4053.000000	0.579239	0.551122	450.208187
4054.000000	0.524978	0.503149	375.529382
4055.000000	0.658244	0.583530	361.032840
4056.000000	0.631972	0.565346	571.713607
4057.000000	0.624813	0.599296	429.218469
4058.000000	0.696547	0.676349	479.757478
4059.000000	0.626018	0.605430	592.587853
4060.000000	0.789000	0.815933	374.150627
4061.000000	0.811097	1.018811	535.957613
4062.000000	0.847136	0.878188	611.805444
4063.000000	0.741358	0.771455	245.654950
4064.000000	0.779955	0.828841	532.049878
4065.000000	0.776520	0.718954	433.218990
4066.000000	0.710372	0.707344	271.624063
4067.000000	0.884251	0.871932	505.924279
4068.000000	0.866923	0.865883	393.641195
4069.000000	1.066133	0.947966	256.306811
4070.000000	0.819435	0.824806	354.785993
4071.000000	1.042709	0.968139	214.926734
4072.000000	1.197344	1.343583	311.791958
4073.000000	1.012828	1.006294	345.369627
4074.000000	1.577886	1.466251	177.052110
4075.000000	1.169335	1.104705	342.956411
4076.000000	1.437626	1.456291	279.261755
4077.000000	1.075940	1.073362	174.813803
4078.000000	1.262821	1.237631	293.035259
4079.000000	1.188099	1.102213	268.542791
4080.000000	1.624808	1.424788	194.426077
4081.000000	1.799704	1.808657	430.209156
4082.000000	1.886339	1.802697	151.686937
4083.000000	2.098928	2.101366	183.114505
4084.000000	2.199009	2.208355	241.082839
4085.000000	2.351302	2.386363	88.590631
4086.000000	2.485313	2.653352	211.351453
4087.000000	2.671935	2.725695	203.550687
4088.000000	3.065685	3.056987	82.245563
4089.000000	3.079082	3.146421	320.589770
4090.000000	4.105387	4.714896	137.397857
4091.000000	3.422696	3.189544	149.617327
4092.000000	4.070744	4.057403	231.335662
4093.000000	4.048662	3.749127	233.766214
4094.000000	4.794432	4.988567	193.012030
4095.000000	5.368582	4.707315	342.472835
4096.000000	5.080096	5.217224	269.516094
4097.000000	5.903844	5.845241	184.881636
4098.000000	5.884358	5.628001	264.613792
4099.000000	6.249261	6.266608	153.688940
4100.000000	6.420366	6.635527	240.596092
4101.000000	7.829945	8.108432	233.773086
4102.000000	7.281751	6.578170	167.847999
4103.000000	7.961172	7.686577	295.326421
4104.000000	7.557520	8.066703	197.948662
4105.000000	7.989777	8.047849	166.827135
4106.000000	7.768863	7.390833	390.747981
4107.000000	8.278297	8.415003	115.681845
4108.000000	8.742726	9.705392	238.217870
4109.000000	9.664560	9.721273	214.718771
4110.000000	11.045874	11.383433	170.489596
4111.000000	9.728253	9.234531	134.831592
4112.000000	9.399285	8.748421	146.487667
4113.000000	11.878700	10.544247	144.116135
4114.000000	12.804017	12.304222	277.208057
4115.000000	12.781119	12.454163	220.733796
4116.000000	12.936023	12.431798	114.566036
4117.000000	13.269441	12.816773	285.082896
4118.000000	15.494789	13.712827	267.629248
4119.000000	14.342126	12.811988	385.004762
4120.000000	13.205560	11.710065	215.795449
4121.000000	15.053358	17.222273	199.265777
4122.000000	13.319129	14.560943	216.898514
4123.000000	14.542729	14.224312	350.054849
4124.000000	14.675750	14.021664	211.845102
4125.000000	15.808323	15.548273	657.737300
4126.000000	11.808507	11.084174	319.280331
4127.000000	11.202226	9.425143	157.734228
4128.000000	11.034226	11.971188	429.196012
4129.000000	12.689199	11.640664	472.131102
4130.000000	12.442612	13.820668	215.425690
4131.000000	11.713849	10.877288	422.080365
4132.000000	9.937225	9.757174	191.161539
4133.000000	11.840982	10.905555	393.191154
4134.000000	11.518361	10.845864	180.625952
4135.000000	10.035187	9.194733	212.788095
4136.000000	10.724705	9.906888	282.331109
4137.000000	8.847750	7.850838	347.645842
4138.000000	8.241519	8.503669	152.831530
4139.000000	9.130028	9.301612	216.034624
4140.000000	8.300449	8.380724	101.092491
4141.000000	8.260615	7.723475	189.686763
4142.000000	8.292480	8.405994	249.428274
4143.000000	7.856102	7.318569	238.955960
4144.000000	7.906120	6.912593	280.470673
4145.000000	6.963644	6.569805	266.619881
4146.000000	6.976477	6.609862	255.999215
4147.000000	7.357270	7.568893	326.748003
4148.000000	5.820939	6.116269	347.746356
4149.000000	5.789552	5.248640	206.397913
4150.000000	6.248399	7.138834	347.042267
4151.000000	6.105727	5.827914	333.856658
4152.000000	5.604620	5.886124	145.262054
4153.000000	5.347254	5.230486	532.098178
4154.000000	4.415518	4.396550	378.692672
4155.000000	5.044202	4.081763	300.443611
4156.000000	4.637208	4.541569	627.004292
4157.000000	4.325438	4.486123	300.344670
4158.000000	3.998105	3.993834	381.046854
4159.000000	4.296128	4.991875	551.651880
4160.000000	4.515688	4.524138	239.675314
4161.000000	4.276710	4.396271	424.980296
4162.000000	3.969814	4.103069	483.913922
4163.000000	3.587650	3.126106	274.347366
4164.000000	3.752370	3.319063	472.570258
4165.000000	4.013013	4.307020	386.378272
4166.000000	3.509971	3.514233	236.966204
4167.000000	3.171720	3.135209	493.779328
4168.000000	3.405936	3.487738	366.992015
4169.000000	2.742462	2.281286	292.700490
4170.000000	3.072385	2.871332	498.347164
4171.000000	3.210189	3.407207	247.082643
4172.000000	2.691283	2.599978	286.755303
4173.000000	2.921023	3.053085	356.269669
4174.000000	2.896791	2.678356	208.952288
4175.000000	2.902104	3.059069	385.394479
4176.000000	2.501861	2.585351	335.157762
4177.000000	2.879113	3.355417	163.179617
4178.000000	2.789716	3.168684	364.737520
4179.000000	2.606773	2.708207	277.351398
4180.000000	2.651866	2.583297	251.310653
4181.000000	3.053337	2.825961	352.546711
4182.000000	2.853218	2.654877	218.480574
4183.000000	2.628787	2.927864	309.611317
4184.000000	2.959715	3.256675	316.930047
4185.000000	2.854136	2.669572	194.410155
4186.000000	2.727024	2.613476	247.531950
4187.000000	2.709715	2.524093	261.527180
4188.000000	2.583842	2.324086	146.691925
4189.000000	2.499353	2.122183	318.147349
4190.000000	2.742265	2.837763	255.742232
4191.000000	2.502115	2.391059	210.000726
4192.000000	2.531296	2.358442	310.626028
4193.000000	2.481738	2.472516	230.224929
4194.000000	2.530035	2.401138	257.074682
4195.000000	2.553441	2.559640	308.804420
4196.000000	2.555357	2.562606	172.633048
4197.000000	2.677279	2.317771	247.899639
4198.000000	2.338009	2.455808	213.729637
4199.000000	2.740334	2.905873	137.168516
4200.000000	2.718634	2.604749	228.027554
4201.000000	2.406367	2.264233	280.487363
4202.000000	2.647610	2.507017	125.080126
4203.000000	2.507595	2.569323	215.645518
4204.000000	2.550996	2.390300	202.394082
4205.000000	2.099530	2.092792	169.090512
4206.000000	2.257111	2.315665	271.470117
4207.000000	2.532632	2.395221	146.975843
4208.000000	2.361762	2.297364	242.534825
4209.000000	2.368866	2.409352	250.913360
4210.000000	2.394340	2.265757	153.519246
4211.000000	2.402534	2.375388	210.484211
4212.000000	2.329559	2.167574	235.486029
4213.000000	2.400354	2.202998	94.939482
4214.000000	2.523861	2.721986	195.071542
4215.000000	2.557558	2.698292	184.520525
4216.000000	2.525405	2.681790	108.174702
4217.000000	2.503820	2.488541	176.799932
4218.000000	2.382727	2.402771	144.215607
4219.000000	2.285081	2.483866	97.655319
4220.000000	2.536406	2.483856	210.428690
4221.000000	2.430077	2.343983	123.604409
4222.000000	2.403560	2.115149	193.717978
4223.000000	2.463785	2.385034	226.630626
4224.000000	2.278385	2.190737	93.228612
4225.000000	2.230825	2.311264	238.981714
4226.000000	2.399755	2.341233	147.790022
4227.000000	2.314583	2.324600	110.462122
4228.000000	2.316667	2.212628	237.108117
4229.000000	2.263105	2.240645	162.580280
4230.000000	2.290330	2.233227	92.588232
4231.000000	2.396206	2.584741	183.222428
4232.000000	2.489249	2.600947	148.233581
4233.000000	2.229515	2.277412	139.462345
4234.000000	2.385734	2.468707	153.943975
4235.000000	2.647312	2.504461	71.255810
4236.000000	2.347387	2.297822	139.950477
4237.000000	2.791702	2.784663	121.850365
4238.000000	2.605518	2.806251	49.766518
4239.000000	2.228104	2.334846	108.542088
4240.000000	2.228011	2.370086	90.892668
4241.000000	2.082746	2.135663	39.725327
4242.000000	2.712802	2.753706	99.768278
4243.000000	2.435881	2.485737	60.205700
4244.000000	2.473899	2.501594	48.781704
4245.000000	2.414882	2.360321	93.781387
4246.000000	2.512629	2.402348	51.887892
4247.000000	2.276222	2.209590	93.832416
4248.000000	2.302391	2.543431	92.070528
4249.000000	2.583101	2.730116	35.768096
4250.000000	2.864485	2.693488	97.610844
4251.000000	2.824134	3.014139	64.012238
4252.000000	2.590176	3.033467	51.916327
4253.000000	2.573816	2.692292	82.871324
4254.000000	2.571190	2.435479	98.590069
4255.000000	2.926264	2.937802	33.160537
4256.000000	3.023773	3.089300	98.560747
4257.000000	2.715380	2.425455	51.929987
4258.000000	3.287468	3.199474	56.338904
4259.000000	2.768154	2.643733	75.712501
4260.000000	2.769595	2.740083	48.726303
4261.000000	2.826207	2.835768	114.394511
4262.000000	3.068442	3.013822	89.545040
4263.000000	2.644242	2.406927	54.315688
4264.000000	2.816698	2.852595	58.389018
4265.000000	3.064821	3.523337	87.943054
4266.000000	2.571275	2.436815	44.166667
4267.000000	3.169151	3.204315	66.440097
4268.000000	2.987855	2.856823	39.355541
4269.000000	2.532260	2.410985	48.521515
4270.000000	3.268271	3.325250	88.642782
4271.000000	3.043365	2.910926	48.389599
4272.000000	3.157140	2.551579	51.088539
4273.000000	2.841043	2.924713	88.408761
4274.000000	2.963272	3.000236	27.410911
4275.000000	2.774538	2.664561	34.987822
4276.000000	3.448003	3.373182	57.203482
4277.000000	2.857263	2.719683	18.550655
4278.000000	3.305452	3.511974	75.266062
4279.000000	3.527141	3.578757	49.379326
4280.000000	3.193180	3.196031	40.064886
4281.000000	2.831389	2.959353	72.745414
4282.000000	3.446169	2.932308	44.245331
4283.000000	3.204258	3.312452	24.354829
4284.000000	2.736459	2.645621	77.770078
4285.000000	2.964948	3.197775	28.434492
4286.000000	3.153723	3.510560	69.094352
4287.000000	3.157367	3.044717	53.741913
4288.000000	2.936908	3.052444	40.983817
4289.000000	3.013039	3.433698	79.761849
4290.000000	2.951343	2.860563	18.754902
4291.000000	2.887233	3.007439	22.249562
4292.000000	2.839728	2.608690	66.284913
4293.000000	3.253362	3.270934	47.557682
4294.000000	3.038164	2.786026	21.328008
4295.000000	2.980659	2.864124	25.145926
4296.000000	3.002799	2.897477	34.899774
4297.000000	3.378785	3.395199	15.979219
4298.000000	2.814469	2.858595	13.340401
4299.000000	3.057959	3.191273	11.417828
4300.000000	3.199723	3.007288	16.842293
4301.000000	3.075480	3.088993	21.281640
4302.000000	3.022190	3.190060	18.456203
4303.000000	2.897408	3.118716	16.504806
4304.000000	3.283278	3.316235	18.612581
4305.000000	3.266705	3.260918	8.947265
4306.000000	3.157336	3.298234	17.950598
4307.000000	3.212129	3.032856	22.468258
4308.000000	3.217063	3.248098	15.454934
4309.000000	3.069567	2.895519	13.067132
4310.000000	3.219760	3.267727	15.638545
4311.000000	3.338669	2.848410	18.595586
4312.000000	3.392027	3.885171	12.813146
4313.000000	3.389836	3.545991	18.564709
4314.000000	3.258957	3.133362	12.580634
4315.000000	3.514600	3.557208	16.772969
4316.000000	3.363324	3.210891	15.257337
4317.000000	3.320860	3.183434	11.937473
4318.000000	3.576789	3.624454	12.535640
4319.000000	3.330131	3.199930	15.030821
4320.000000	3.894967	3.838082	15.236781
4321.000000	3.391300	3.654528	16.859799
4322.000000	3.369501	3.854372	15.185229
4323.000000	3.808997	3.989281	21.866120
4324.000000	3.558050	3.935211	14.014505
4325.000000	3.814433	3.586745	23.087510
4326.000000	3.396070	3.423067	29.462364
4327.000000	3.659370	4.053415	18.075240
4328.000000	3.821812	3.985601	56.377423
4329.000000	4.009361	4.080252	42.513455
4330.000000	4.068294	3.500725	28.620498
4331.000000	3.493592	3.670570	34.757988
4332.000000	3.576778	3.408596	48.158466
4333.000000	3.889186	3.564480	60.944194
4334.000000	3.233818	3.210779	57.437804
4335.000000	4.154506	4.247273	52.852205
4336.000000	3.478523	3.670453	64.991429
4337.000000	4.056953	4.169696	55.019078
4338.000000	3.473950	3.624333	26.403063
4339.000000	4.056287	4.306786	63.436540
4340.000000	3.532134	3.876215	64.816528
4341.000000	3.557454	3.776825	56.445928
4342.000000	3.649744	3.532878	124.462548
4343.000000	4.191135	4.724640	57.320916
4344.000000	4.673040	4.306281	52.770811
4345.000000	4.185112	4.722819	45.241078
4346.000000	4.367658	4.544475	38.422039
4347.000000	3.405304	3.594645	66.366357
4348.000000	3.798094	3.382030	119.520088
4349.000000	4.259880	4.171204	60.487706
4350.000000	3.915008	4.197588	82.782237
4351.000000	4.122216	3.925184	108.185546
4352.000000	4.261413	4.212245	44.275970
4353.000000	3.948246	3.936522	69.105332
4354.000000	4.397044	4.553075	38.202441
4355.000000	4.871586	5.572532	23.624576
4356.000000	4.155058	4.158442	49.813569
4357.000000	3.937580	3.965354	32.256938
4358.000000	3.661770	3.712277	31.044193
4359.000000	3.794425	3.826601	45.444694
4360.000000	3.374913	3.340983	25.201249
4361.000000	3.474191	3.698081	14.571195
4362.000000	2.997465	2.943702	25.608294
4363.000000	3.467289	3.028182	16.150149
4364.000000	3.197339	2.995317	20.646492
4365.000000	3.103516	2.836188	19.190222
4366.000000	3.258931	3.413225	22.455211
4367.000000	3.248658	2.925714	18.163586
4368.000000	3.290091	3.331798	40.500521
4369.000000	3.137904	2.892737	16.075586
4370.000000	3.462150	3.338384	24.152503
4371.000000	3.025561	3.162427	12.217545
4372.000000	3.409609	3.667976	55.498387
4373.000000	3.103881	3.214228	24.113492
4374.000000	2.963673	3.035117	13.111072
4375.000000	2.871260	3.230598	38.188314
4376.000000	2.891401	2.658830	19.414415
4377.000000	3.102239	2.952888	25.461169
4378.000000	2.797537	2.799408	35.775136
4379.000000	3.058990	2.997029	17.868513
4380.000000	2.972214	3.058224	15.348950
4381.000000	3.170111	2.960524	18.786542
4382.000000	3.414174	3.549516	19.184956
4383.000000	3.329083	3.377077	31.903768
4384.000000	3.362984	3.322109	16.545374
4385.000000	3.346584	3.363335	16.687187
4386.000000	3.344310	3.551678	11.727184
