

# Pol in full trans
# Scan parameters: power 16.000000 dBm, bandwidth 1.500000 Hz
# Frequency [MHz]	avg noise	std noise	peak value
3850.000000	6.713983	4.335810	1541.400111
3851.000000	1.076141	1.077920	1381.667160
3852.000000	1.242849	1.287772	888.134802
3853.000000	1.107025	1.152283	1849.544581
3854.000000	0.970848	0.912833	1480.736238
3855.000000	1.054558	0.974320	1287.149152
3856.000000	0.945652	0.816241	2142.807584
3857.000000	0.945371	0.855248	1483.983465
3858.000000	1.031451	1.032312	1938.197301
3859.000000	0.789725	0.705582	2519.317322
3860.000000	1.188617	1.209817	1456.030878
3861.000000	0.824136	0.806104	2457.087875
3862.000000	0.888311	0.849421	2733.747244
3863.000000	0.866922	0.894448	1378.398753
3864.000000	0.799387	0.699554	2953.152974
3865.000000	0.773631	0.767913	2748.515496
3866.000000	0.676281	0.731551	2055.146089
3867.000000	0.628870	0.579579	3593.656941
3868.000000	0.646312	0.586909	2417.614016
3869.000000	0.706643	0.809063	2385.760420
3870.000000	0.605192	0.618375	3384.055184
3871.000000	0.543674	0.543713	1781.717801
3872.000000	0.665964	0.724910	2388.997138
3873.000000	0.604795	0.527836	2891.640197
3874.000000	0.565586	0.548290	1177.102618
3875.000000	0.581604	0.559153	2421.169017
3876.000000	0.559910	0.540795	2394.184572
3877.000000	0.550504	0.639293	1368.455167
3878.000000	0.568039	0.537122	2665.364369
3879.000000	0.594781	0.656555	1989.306907
3880.000000	0.667401	0.685199	1769.588158
3881.000000	0.607857	0.608863	2553.195573
3882.000000	0.641929	0.584954	1563.187724
3883.000000	0.660598	0.610533	1880.720193
3884.000000	0.677873	0.636779	2201.257339
3885.000000	0.704365	0.740978	1183.436810
3886.000000	0.614694	0.594759	1933.780541
3887.000000	0.704515	0.693643	2033.213802
3888.000000	0.683573	0.656111	1004.469569
3889.000000	0.676988	0.667283	2142.559414
3890.000000	0.742684	0.863619	1834.890741
3891.000000	0.822154	0.808190	1158.868431
3892.000000	0.665600	0.647841	1857.032115
3893.000000	0.829443	0.948488	1155.997771
3894.000000	0.795531	0.786258	1077.157466
3895.000000	0.928605	0.969539	1437.875959
3896.000000	1.036004	0.936276	814.216802
3897.000000	1.091082	1.074575	1275.090000
3898.000000	1.229112	1.095933	1565.001037
3899.000000	1.350040	1.356837	675.656606
3900.000000	1.430534	1.349445	1718.349882
3901.000000	1.787844	1.858749	1680.303542
3902.000000	1.691768	1.761865	1027.473981
3903.000000	1.986632	2.027060	2337.739298
3904.000000	2.144977	1.917123	1952.625910
3905.000000	2.679632	2.701950	1759.439656
3906.000000	2.378479	2.256184	2882.687665
3907.000000	3.245261	3.222802	1968.082402
3908.000000	2.996563	2.980646	2401.279449
3909.000000	3.137174	3.093431	2844.480251
3910.000000	3.544754	3.488905	1424.129599
3911.000000	3.583163	3.373543	2314.734516
3912.000000	3.410108	3.372224	2287.033693
3913.000000	3.582229	4.051858	1151.112513
3914.000000	3.263995	3.249807	2069.189155
3915.000000	3.515206	3.453091	1660.756499
3916.000000	3.234562	3.581890	1153.298310
3917.000000	3.126197	3.317035	1870.241747
3918.000000	3.060143	2.901318	1356.885755
3919.000000	3.014286	2.881561	1373.963430
3920.000000	2.913857	2.975642	2061.813721
3921.000000	3.084196	3.229671	1067.161953
3922.000000	3.121880	2.722376	1756.064010
3923.000000	3.274778	3.010079	2084.419409
3924.000000	2.975056	3.150041	1069.402155
3925.000000	3.493140	3.008611	2139.160257
3926.000000	3.273264	3.421512	2146.383550
3927.000000	3.598104	3.885890	1304.414016
3928.000000	4.197215	4.634690	2445.471425
3929.000000	3.965144	4.013441	2293.631343
3930.000000	4.697582	4.896092	2049.089293
3931.000000	5.010420	5.231405	3298.622263
3932.000000	5.415610	6.336074	2489.212473
3933.000000	5.155578	5.101926	2774.099550
3934.000000	4.734504	4.671471	4304.862174
3935.000000	5.032893	4.824419	2075.043201
3936.000000	4.604799	4.626327	3998.476088
3937.000000	5.128441	5.006098	4621.271277
3938.000000	5.376819	5.332589	2127.201880
3939.000000	5.355754	5.098675	4817.868226
3940.000000	4.714639	4.829272	4394.034558
3941.000000	5.771678	6.028289	2921.691996
3942.000000	5.422942	5.331749	5020.752786
3943.000000	5.017044	4.918549	2702.447957
3944.000000	5.390164	5.458915	3299.911370
3945.000000	5.219855	4.938601	4148.107780
3946.000000	4.859256	4.623177	2228.359594
3947.000000	4.731712	5.276116	3034.294469
3948.000000	4.883363	4.905177	3117.623416
3949.000000	5.045545	5.193182	1448.982357
3950.000000	4.892823	4.469762	3055.485033
3951.000000	4.937056	4.846062	2909.261989
3952.000000	4.661214	4.546818	1375.701979
3953.000000	4.761766	4.993065	3213.223222
3954.000000	4.671592	4.843553	2433.466849
3955.000000	5.175924	5.051813	2121.245312
3956.000000	5.642865	5.009507	3049.562026
3957.000000	5.664260	5.989701	1965.283221
3958.000000	4.477959	4.478001	2310.971257
3959.000000	4.073431	4.040452	3091.806272
3960.000000	5.290940	4.967154	1862.640991
3961.000000	4.518878	4.539762	2582.856630
3962.000000	5.131314	4.795485	2475.474999
3963.000000	4.675513	4.903353	1383.024746
3964.000000	4.661691	4.849289	3280.084828
3965.000000	3.997137	4.073826	2967.557387
3966.000000	4.228909	4.259232	2071.102670
3967.000000	4.155419	4.235105	3769.773789
3968.000000	4.233721	4.104658	2587.397432
3969.000000	4.058633	4.098980	2580.278837
3970.000000	3.504506	3.478337	3697.265121
3971.000000	4.042848	3.820138	2058.075513
3972.000000	4.014116	4.117615	3173.426844
3973.000000	3.240348	3.297852	3371.819506
3974.000000	2.864667	3.068138	1410.756112
3975.000000	2.974972	3.127716	2832.991001
3976.000000	3.216285	2.845665	2652.588098
3977.000000	2.912494	2.807257	1482.922337
3978.000000	2.620467	2.415128	2692.012978
3979.000000	2.697482	2.454131	2147.762312
3980.000000	1.999068	2.127385	1942.490672
3981.000000	2.130276	2.170186	3006.647469
3982.000000	2.004425	1.886066	1893.333594
3983.000000	1.758180	1.721033	2347.757519
3984.000000	1.852318	1.921087	3027.184266
3985.000000	1.730392	1.693047	1610.983229
3986.000000	1.761811	1.744965	2541.036078
3987.000000	1.572422	1.577268	2736.846018
3988.000000	1.400434	1.368847	1305.033950
3989.000000	1.434270	1.373421	2646.624024
3990.000000	1.649199	1.753402	2382.871732
3991.000000	1.481131	1.366741	1635.997976
3992.000000	1.297174	1.296830	2866.882448
3993.000000	1.372880	1.231892	2105.397502
3994.000000	1.281738	1.218861	2018.085027
3995.000000	1.312663	1.182292	2677.078989
3996.000000	1.382495	1.336270	1577.380236
3997.000000	1.052238	1.107491	2353.235702
3998.000000	1.190837	1.107455	2527.635583
3999.000000	1.101293	1.164215	1112.587994
4000.000000	0.871432	0.845395	2157.231392
4001.000000	1.042204	1.057425	2055.951908
4002.000000	0.933499	0.938828	1060.181780
4003.000000	1.023332	0.994234	1885.438832
4004.000000	0.941746	0.957296	1300.069923
4005.000000	0.851025	0.862003	995.045728
4006.000000	0.843166	0.903030	1417.752310
4007.000000	0.873535	0.914210	788.259244
4008.000000	0.850066	0.947261	786.496243
4009.000000	0.793085	0.772537	869.831361
4010.000000	0.786304	0.736927	400.128336
4011.000000	0.751417	0.757975	637.145066
4012.000000	0.830963	0.881945	550.705682
4013.000000	0.949008	1.040591	290.968218
4014.000000	0.901441	0.811172	576.193562
4015.000000	0.894702	0.885005	459.011270
4016.000000	0.724582	0.717934	283.234410
4017.000000	0.681851	0.785253	488.792428
4018.000000	0.642331	0.653691	299.956756
4019.000000	0.733068	0.794178	274.647507
4020.000000	0.732088	0.865943	349.302012
4021.000000	0.743015	0.752687	197.290762
4022.000000	0.676187	0.740881	234.026894
4023.000000	0.658735	0.649326	259.771098
4024.000000	0.730716	0.734399	132.555166
4025.000000	0.774217	0.812264	246.181478
4026.000000	0.660472	0.590334	229.216693
4027.000000	0.595298	0.624807	114.189946
4028.000000	0.748524	0.693135	225.674536
4029.000000	0.647125	0.699472	196.556195
4030.000000	0.636321	0.734663	122.041741
4031.000000	0.588149	0.611883	177.956388
4032.000000	0.598818	0.614574	85.469000
4033.000000	0.654233	0.814825	120.136850
4034.000000	0.649288	0.582505	150.832680
4035.000000	0.689802	0.781737	52.745386
4036.000000	0.697729	0.668511	96.731005
4037.000000	0.653360	0.650438	106.587572
4038.000000	0.657437	0.607497	37.947802
4039.000000	0.694949	0.687400	82.117193
4040.000000	0.693655	0.677443	58.423181
4041.000000	0.652059	0.713066	51.113725
4042.000000	0.702281	0.697453	72.427988
4043.000000	0.760361	0.714135	42.390561
4044.000000	0.670184	0.670897	47.786149
4045.000000	0.861643	0.875235	93.723550
4046.000000	0.770876	0.785560	46.733925
4047.000000	0.890419	0.910065	69.653436
4048.000000	0.928629	0.931630	83.724132
4049.000000	0.945354	0.974366	49.248093
4050.000000	0.835099	0.751145	122.894268
4051.000000	0.955252	0.898167	151.793926
4052.000000	1.057403	1.040153	117.249612
4053.000000	0.928557	0.953230	226.112528
4054.000000	0.857568	0.782460	287.525263
4055.000000	0.942145	0.967616	228.302588
4056.000000	0.924670	0.810732	435.861527
4057.000000	0.953351	0.948933	363.303032
4058.000000	0.968047	1.004118	434.128315
4059.000000	1.088290	1.108683	616.239176
4060.000000	1.021743	1.008905	344.099508
4061.000000	1.037660	0.947550	530.936003
4062.000000	1.211325	1.204678	558.504488
4063.000000	1.008652	0.949157	250.751113
4064.000000	1.176850	1.118066	638.258028
4065.000000	1.273247	1.102379	581.830486
4066.000000	1.097705	1.062625	420.298742
4067.000000	1.184314	0.992347	723.341938
4068.000000	1.146976	1.189423	571.556864
4069.000000	1.253603	1.190750	495.631364
4070.000000	1.288757	1.324427	706.444599
4071.000000	1.473880	1.356983	449.405295
4072.000000	1.646977	1.702250	578.184989
4073.000000	1.463417	1.503881	812.233041
4074.000000	1.436289	1.517165	377.948609
4075.000000	1.775114	1.621454	750.278879
4076.000000	1.637858	1.609703	806.720974
4077.000000	1.654370	1.697993	475.848866
4078.000000	2.219148	1.934558	813.290536
4079.000000	1.659107	1.567521	529.116634
4080.000000	1.757660	1.667086	514.228426
4081.000000	1.946095	2.051211	683.972446
4082.000000	2.010885	2.124015	397.039505
4083.000000	2.178199	2.102313	411.615512
4084.000000	2.240094	2.370211	587.277602
4085.000000	2.803441	2.626350	353.454708
4086.000000	2.955107	2.956732	644.574364
4087.000000	2.896477	2.789966	709.602745
4088.000000	3.238496	2.960386	406.001334
4089.000000	3.358835	3.402900	910.406427
4090.000000	3.483116	3.467647	889.747521
4091.000000	3.306640	3.266500	576.200345
4092.000000	3.456046	3.673916	1165.482899
4093.000000	3.911414	3.757899	839.801814
4094.000000	4.019363	3.402732	819.398534
4095.000000	4.533257	4.120239	1550.441284
4096.000000	4.840738	5.235471	657.499458
4097.000000	4.474487	4.316430	1082.377385
4098.000000	4.753705	4.310348	1254.103304
4099.000000	6.593662	6.087600	522.069199
4100.000000	5.160929	5.589572	1060.032869
4101.000000	5.262240	5.381997	1076.146523
4102.000000	6.550948	6.566479	585.216761
4103.000000	6.541701	6.008769	1182.978980
4104.000000	7.898640	7.682514	974.558875
4105.000000	8.889765	8.959175	755.718713
4106.000000	8.729777	7.690324	963.946877
4107.000000	8.977761	8.227650	387.654953
4108.000000	9.401557	8.589059	505.712347
4109.000000	9.843647	10.870763	852.453400
4110.000000	14.383332	14.815105	431.840879
4111.000000	14.376648	13.195948	622.642082
4112.000000	12.506775	11.603613	555.966350
4113.000000	14.440419	12.582778	274.663777
4114.000000	17.092345	14.660790	677.913457
4115.000000	14.791184	13.962679	765.502549
4116.000000	15.745731	16.828636	286.534727
4117.000000	16.620762	16.559386	595.020994
4118.000000	17.033642	16.182121	379.996168
4119.000000	20.468295	18.021125	447.618010
4120.000000	17.174546	17.926742	512.518654
4121.000000	18.902871	19.763712	281.723501
4122.000000	17.185879	17.063591	624.227142
4123.000000	22.137473	20.183487	1005.676104
4124.000000	18.885492	19.717054	279.927717
4125.000000	16.746516	16.264372	571.320520
4126.000000	19.874013	19.484583	752.366289
4127.000000	23.427710	25.572738	355.611315
4128.000000	23.725897	23.146085	1224.791502
4129.000000	19.983859	23.332100	746.582245
4130.000000	21.713045	23.631024	514.287585
4131.000000	22.460441	23.869957	652.930722
4132.000000	21.104789	21.598875	521.207369
4133.000000	19.131164	19.923820	553.072100
4134.000000	20.119115	19.384445	818.700022
4135.000000	19.158989	20.820310	435.950870
4136.000000	14.589845	14.240594	568.672315
4137.000000	17.535646	15.013718	712.110148
4138.000000	17.218114	16.767232	317.952968
4139.000000	15.245897	13.973254	785.698836
4140.000000	17.199994	16.963093	543.171160
4141.000000	17.770301	18.086925	575.951183
4142.000000	15.782636	17.890690	1137.866040
4143.000000	18.594886	17.724217	598.511465
4144.000000	16.536545	16.558463	587.924511
4145.000000	16.612207	16.517375	910.247693
4146.000000	14.314824	13.484172	1174.184863
4147.000000	14.576114	15.405896	876.238934
4148.000000	14.869925	15.181057	1606.661291
4149.000000	13.978524	13.416548	587.967917
4150.000000	13.129906	14.201347	1795.727875
4151.000000	11.863646	12.642556	1660.520211
4152.000000	10.738436	12.591085	883.912322
4153.000000	10.015422	9.200374	1913.481710
4154.000000	10.481206	10.756944	1620.231959
4155.000000	10.819897	10.467974	1361.249291
4156.000000	9.188191	8.689068	1748.237727
4157.000000	8.112021	7.682390	1238.384298
4158.000000	7.216612	7.690651	1647.343701
4159.000000	7.025347	6.197941	2095.428090
4160.000000	6.808892	7.031172	1160.686128
4161.000000	6.879395	6.779581	2006.415168
4162.000000	5.558297	5.436150	2151.032214
4163.000000	5.338173	5.077309	1030.337397
4164.000000	5.220328	5.143070	2055.175708
4165.000000	4.973130	4.684783	2097.747559
4166.000000	4.173807	3.952741	1315.318029
4167.000000	4.329039	4.451411	2229.431984
4168.000000	4.207570	4.293058	1547.046119
4169.000000	3.877471	3.980463	1514.092240
4170.000000	3.638371	3.220586	2046.983611
4171.000000	3.390379	3.871040	1355.144633
4172.000000	3.177883	3.182397	1788.804941
4173.000000	2.863625	2.666407	2072.022708
4174.000000	2.791617	3.000805	916.258061
4175.000000	2.371577	2.364908	2018.644457
4176.000000	2.910431	2.935853	1790.539867
4177.000000	2.829215	3.161359	1094.619390
4178.000000	2.752234	2.767573	1823.445439
4179.000000	2.275414	1.984831	1539.161091
4180.000000	2.667571	2.778720	1121.297924
4181.000000	2.721749	2.666162	1762.038260
4182.000000	2.448328	2.558470	1053.857347
4183.000000	2.701982	2.497299	1448.999767
4184.000000	3.044788	3.353386	1616.383874
4185.000000	2.674254	2.853620	928.567367
4186.000000	3.025430	3.091683	1376.322440
4187.000000	2.897472	2.800001	1594.641882
4188.000000	2.789848	2.745602	803.834440
4189.000000	3.124985	2.909451	1494.663286
4190.000000	3.340776	3.315152	1466.905886
4191.000000	3.930804	3.893869	974.551819
4192.000000	3.846469	4.387150	1525.444275
4193.000000	3.915558	3.561749	1215.566217
4194.000000	4.200351	4.206946	908.412907
4195.000000	3.981244	3.790246	1774.254933
4196.000000	3.931315	4.045801	914.412539
4197.000000	4.995220	4.630753	1149.484601
4198.000000	4.621986	4.657812	1582.826207
4199.000000	4.971721	5.092844	652.120230
4200.000000	5.095223	5.335716	1360.858567
4201.000000	4.743939	4.728542	1252.390352
4202.000000	3.688112	3.430727	834.406007
4203.000000	4.480286	4.332839	1409.152992
4204.000000	4.332406	4.072651	981.534931
4205.000000	4.085295	4.490348	997.745993
4206.000000	4.492177	4.477346	1355.405583
4207.000000	4.538546	4.439695	977.940707
4208.000000	4.783005	4.354855	1065.312962
4209.000000	4.961196	4.845384	1213.903874
4210.000000	4.418770	4.603481	708.860464
4211.000000	4.011250	4.860354	1195.449402
4212.000000	3.855338	3.947433	908.569293
4213.000000	4.611702	4.591253	474.463374
4214.000000	4.047234	3.757891	1008.865329
4215.000000	3.396439	3.773740	853.986776
4216.000000	4.449970	4.448895	461.228167
4217.000000	4.149310	3.817903	1034.173513
4218.000000	4.531272	4.836957	700.467649
4219.000000	3.816761	4.150563	712.899164
4220.000000	4.434446	4.375964	1008.958545
4221.000000	4.955306	4.751440	507.445740
4222.000000	3.883067	3.688408	763.712960
4223.000000	4.220499	4.515155	701.700563
4224.000000	4.219146	4.019952	410.010990
4225.000000	4.250835	4.077975	690.049058
4226.000000	3.730297	3.902680	893.117777
4227.000000	4.456045	4.571203	435.819444
4228.000000	3.774371	3.803862	803.918351
4229.000000	3.848587	4.355730	564.094352
4230.000000	3.713245	4.089950	407.869263
4231.000000	2.970198	3.291013	799.068739
4232.000000	2.934602	2.982147	422.860314
4233.000000	2.882137	3.004367	573.420070
4234.000000	3.301113	3.046787	627.778600
4235.000000	3.155330	3.408399	366.537021
4236.000000	2.645760	2.442753	477.785234
4237.000000	3.108711	3.254734	453.125126
4238.000000	2.717461	2.372976	157.864134
4239.000000	2.762642	2.930580	307.950208
4240.000000	2.579807	2.563563	300.543372
4241.000000	2.406891	2.092114	185.848554
4242.000000	2.781225	2.972829	221.195439
4243.000000	2.515060	2.554692	183.744285
4244.000000	2.311332	2.224192	184.826592
4245.000000	2.303488	2.409936	227.317950
4246.000000	1.910043	2.158720	158.828681
4247.000000	2.117740	1.934696	185.811346
4248.000000	2.003903	2.002763	208.933813
4249.000000	2.006020	1.967606	84.500544
4250.000000	1.908393	1.888884	228.138019
4251.000000	1.884813	1.884416	231.465782
4252.000000	2.014780	1.984669	122.090120
4253.000000	1.844057	1.758137	224.369668
4254.000000	1.672803	1.763614	231.613485
4255.000000	1.644846	1.555877	208.160862
4256.000000	1.495500	1.439298	307.224220
4257.000000	1.315336	1.568722	166.045414
4258.000000	1.662365	1.369993	172.641707
4259.000000	1.464672	1.446707	278.387285
4260.000000	1.646040	1.628122	93.230777
4261.000000	1.633492	1.694036	195.050627
4262.000000	1.417510	1.438119	154.576543
4263.000000	1.340924	1.318967	98.914810
4264.000000	1.439155	1.409407	172.020276
4265.000000	1.828976	1.905309	184.869575
4266.000000	1.583401	1.524530	96.554846
4267.000000	1.565607	1.541463	205.741920
4268.000000	1.501787	1.617022	145.464618
4269.000000	1.516426	1.414062	109.044400
4270.000000	1.254322	1.151384	138.508849
4271.000000	1.291451	1.250615	95.877540
4272.000000	1.419348	1.489783	101.849553
4273.000000	1.538504	1.489001	104.901911
4274.000000	1.374105	1.365794	47.658212
4275.000000	1.493809	1.313750	76.740363
4276.000000	1.181946	1.076706	78.401619
4277.000000	1.249656	1.252410	31.588553
4278.000000	1.277470	1.374246	63.946050
4279.000000	1.126029	1.154740	64.891090
4280.000000	1.077672	1.087670	31.099209
4281.000000	0.898110	0.898266	86.705039
4282.000000	0.843640	0.873430	38.643882
4283.000000	0.803847	0.700677	57.928071
4284.000000	0.874762	0.877702	63.765632
4285.000000	0.761455	0.723147	36.447417
4286.000000	0.737857	0.785269	60.764853
4287.000000	0.677297	0.680704	70.802800
4288.000000	0.652374	0.660619	41.054217
4289.000000	0.657070	0.596263	83.617107
4290.000000	0.578983	0.567387	66.279006
4291.000000	0.445087	0.447145	56.193381
4292.000000	0.473685	0.476877	95.224549
4293.000000	0.473208	0.457183	50.622015
4294.000000	0.458304	0.452579	49.947262
4295.000000	0.455058	0.441354	66.995523
4296.000000	0.495306	0.473350	37.378242
4297.000000	0.488808	0.517301	43.888536
4298.000000	0.514568	0.549399	55.270469
4299.000000	0.509802	0.479298	26.102605
4300.000000	0.516421	0.508745	56.984759
4301.000000	0.569619	0.573445	67.068373
4302.000000	0.501735	0.500973	33.964701
4303.000000	0.583060	0.598928	94.656230
4304.000000	0.493619	0.527431	64.024163
4305.000000	0.587932	0.663393	50.549231
4306.000000	0.513384	0.480749	73.198043
4307.000000	0.590992	0.570182	52.024775
4308.000000	0.579936	0.582128	66.042758
4309.000000	0.744724	0.833322	85.318261
4310.000000	0.709744	0.656899	63.907602
4311.000000	0.703572	0.659791	81.900589
4312.000000	0.675622	0.634451	84.663335
4313.000000	0.919672	0.764643	32.159081
4314.000000	0.886668	0.895468	110.075232
4315.000000	1.033695	1.015810	130.261916
4316.000000	1.300079	1.266611	81.071523
4317.000000	1.356491	1.401655	200.059356
4318.000000	1.577393	1.554505	105.180480
4319.000000	1.849478	1.824828	192.023430
4320.000000	1.871300	1.819978	238.757545
4321.000000	2.238905	2.055383	109.454553
4322.000000	2.391146	2.101788	276.438413
4323.000000	2.515216	2.367365	303.380767
4324.000000	2.579910	2.486699	174.194324
4325.000000	2.920526	2.888603	423.712017
4326.000000	2.798894	2.867558	507.344596
4327.000000	3.382867	3.740960	220.129681
