

# 
# Scan parameters: power 16.000000 dBm, bandwidth 1.500000 Hz
# Frequency [MHz]	avg noise	std noise	peak value
3850.000000	10.084269	11.711980	564.706748
3851.000000	9.248725	8.887364	384.612423
3852.000000	9.032260	9.368487	174.543584
3853.000000	9.305232	8.116499	553.727617
3854.000000	8.901396	9.723653	595.939411
3855.000000	8.652995	7.497544	468.988506
3856.000000	8.803529	10.490948	686.823820
3857.000000	8.645152	8.297507	391.940686
3858.000000	8.446314	9.813981	425.062679
3859.000000	10.174627	10.144321	487.591852
3860.000000	8.474635	7.989543	277.310977
3861.000000	9.567346	9.434919	374.487008
3862.000000	9.890942	8.283692	401.891682
3863.000000	7.927316	7.424483	294.861053
3864.000000	9.242167	9.095214	614.698902
3865.000000	8.440208	8.446868	332.284409
3866.000000	8.096919	7.680006	395.234781
3867.000000	9.247395	9.096608	439.597618
3868.000000	8.754329	9.380580	282.499553
3869.000000	7.486901	7.084916	305.417373
3870.000000	7.492097	7.407503	349.671746
3871.000000	9.192898	8.356772	174.825237
3872.000000	9.165707	8.964738	328.140585
3873.000000	7.905755	7.337890	394.259912
3874.000000	9.208165	9.064845	155.349204
3875.000000	8.068861	8.232909	281.903879
3876.000000	10.845189	11.214298	202.865243
3877.000000	8.492827	8.410990	191.416945
3878.000000	8.783297	8.900995	243.809760
3879.000000	9.247178	9.346819	204.289933
3880.000000	9.492634	8.828937	66.572019
3881.000000	9.514033	11.236418	167.242318
3882.000000	10.839495	10.617106	91.931125
3883.000000	9.696296	9.409585	215.568031
3884.000000	9.180640	9.315647	264.136790
3885.000000	8.513083	8.664716	63.745636
3886.000000	9.236444	8.764441	108.427264
3887.000000	10.366460	9.593185	193.942604
3888.000000	9.888606	10.673221	63.043157
3889.000000	9.418929	10.375585	95.857800
3890.000000	9.742772	10.061650	106.595965
3891.000000	8.852264	8.692423	57.648861
3892.000000	10.817885	11.287304	139.384085
3893.000000	10.184442	9.071991	96.415334
3894.000000	10.694261	11.411064	151.563817
3895.000000	11.046960	10.612786	99.579552
3896.000000	9.844135	9.091126	44.379128
3897.000000	9.369215	8.919429	53.167345
3898.000000	8.743017	8.946782	147.366731
3899.000000	9.311549	9.633729	73.815393
3900.000000	10.066901	10.874527	89.953398
3901.000000	10.697936	10.223637	197.015139
3902.000000	9.179479	7.974347	83.983823
3903.000000	9.441279	8.615266	116.276753
3904.000000	8.964298	9.786609	48.080922
3905.000000	9.420126	9.070878	46.398119
3906.000000	8.992625	7.679333	37.874868
3907.000000	9.271815	10.152158	43.662591
3908.000000	8.811599	8.549263	87.318005
3909.000000	12.323477	12.930171	47.180102
3910.000000	12.392049	11.421065	64.185974
3911.000000	10.053922	8.877116	60.566323
3912.000000	10.110940	10.195320	43.942566
3913.000000	9.582501	9.650645	104.202276
3914.000000	8.095968	9.130397	62.730737
3915.000000	9.977743	9.831135	103.198642
3916.000000	10.660348	11.171021	88.284267
3917.000000	9.647513	9.142009	57.204556
3918.000000	10.195080	10.587660	47.890667
3919.000000	9.544849	9.487818	66.418178
3920.000000	10.937011	11.818772	83.668851
3921.000000	10.656975	10.701258	61.654240
3922.000000	11.521550	12.019554	42.084289
3923.000000	11.676520	11.111855	42.383546
3924.000000	9.867720	9.737977	67.417144
3925.000000	9.765653	9.531247	46.895760
3926.000000	10.801531	10.292624	42.480836
3927.000000	10.965312	10.878521	46.676630
3928.000000	12.088609	11.376843	132.837084
3929.000000	11.595638	13.567395	72.944429
3930.000000	10.338779	10.326157	69.439160
3931.000000	10.319635	10.740343	73.234603
3932.000000	10.760170	10.471355	58.914018
3933.000000	11.255427	11.289584	64.074466
3934.000000	10.743099	10.402817	71.702087
3935.000000	11.568065	11.019576	40.857179
3936.000000	11.281977	10.425911	128.843409
3937.000000	11.991641	11.966053	133.988827
3938.000000	10.111518	10.326265	90.603771
3939.000000	11.159920	10.416025	145.697460
3940.000000	11.290966	11.311525	53.054319
3941.000000	10.678403	10.494845	105.725581
3942.000000	11.059764	10.488662	194.303029
3943.000000	10.548813	9.827403	224.344929
3944.000000	8.904050	8.686259	231.090553
3945.000000	11.328729	11.622095	334.745333
3946.000000	10.958207	11.255047	118.065085
3947.000000	10.758198	10.124455	85.533706
3948.000000	10.301088	10.614350	206.391231
3949.000000	12.114767	11.440996	129.398315
3950.000000	10.746399	9.938950	309.848064
3951.000000	10.974441	9.857257	230.592707
3952.000000	11.485974	11.777260	116.162430
3953.000000	10.181274	10.515410	234.456328
3954.000000	12.871604	11.146513	80.694898
3955.000000	11.023322	10.567423	54.438880
3956.000000	10.978677	11.233953	315.411330
3957.000000	10.271084	10.577262	136.662513
3958.000000	11.052664	10.761295	206.984487
3959.000000	12.249860	10.177318	330.721978
3960.000000	11.845007	11.853961	129.563633
3961.000000	11.809463	11.014600	215.393125
3962.000000	10.899807	11.533931	320.099292
3963.000000	11.389982	11.878880	192.061359
3964.000000	11.518363	11.542810	400.761599
3965.000000	10.343946	10.743298	429.069394
3966.000000	11.414316	11.591623	404.257258
3967.000000	10.874020	10.923965	551.765055
3968.000000	12.436875	11.423492	235.869873
3969.000000	10.362950	9.844735	395.584386
3970.000000	10.224548	10.940692	427.772043
3971.000000	10.428985	11.216572	191.731167
3972.000000	11.207267	11.271716	346.019311
3973.000000	12.287245	11.110957	512.575786
3974.000000	10.105589	9.744627	170.783850
3975.000000	12.969835	13.604710	333.994920
3976.000000	9.586656	8.567906	426.281424
3977.000000	10.713783	10.989121	169.931294
3978.000000	11.907615	11.994452	527.818252
3979.000000	12.659714	13.739223	384.323695
3980.000000	9.597767	9.290090	387.552705
3981.000000	10.977374	10.671069	459.821695
3982.000000	12.022967	11.679391	337.976207
3983.000000	11.808955	12.094980	527.624509
3984.000000	11.840123	11.844409	752.001309
3985.000000	10.167684	10.098114	203.288012
3986.000000	13.027067	10.447734	582.144184
3987.000000	11.260939	11.426287	835.434497
3988.000000	11.135553	11.462059	561.792678
3989.000000	11.493367	11.027535	943.739796
3990.000000	13.785601	13.831894	1025.453143
3991.000000	11.629885	10.488621	632.237703
3992.000000	11.449181	12.506758	1271.158003
3993.000000	12.305009	11.996611	826.875319
3994.000000	11.545143	11.244539	804.426022
3995.000000	11.792027	13.847974	1085.095353
3996.000000	12.393503	12.502648	608.361616
3997.000000	11.287652	12.607240	839.578147
3998.000000	11.617120	10.613138	725.955460
3999.000000	11.264200	11.544399	393.770920
4000.000000	12.170650	11.371590	643.689429
4001.000000	12.150432	10.583803	433.524185
4002.000000	13.486019	14.251745	465.582893
4003.000000	12.421031	11.793799	614.618609
4004.000000	12.500402	13.630887	674.640678
4005.000000	13.477179	10.803466	611.532531
4006.000000	11.301535	11.796511	992.119964
4007.000000	11.387785	10.865311	472.282648
4008.000000	12.011091	11.049208	508.292700
4009.000000	14.162036	12.635036	755.363837
4010.000000	12.623360	13.378919	312.636789
4011.000000	12.173443	12.330325	389.632090
4012.000000	13.189875	12.753401	720.199239
4013.000000	14.415694	13.188279	312.172987
4014.000000	13.992625	13.016937	437.758093
4015.000000	12.285742	14.197079	551.774520
4016.000000	11.834600	11.257696	344.643524
4017.000000	15.154353	15.863715	467.006102
4018.000000	13.520025	13.579545	329.090550
4019.000000	15.643637	15.594166	183.256310
4020.000000	13.465007	14.878769	441.545009
4021.000000	16.007142	14.666510	459.759222
4022.000000	14.136794	13.848107	446.186324
4023.000000	13.316933	12.861469	271.235149
4024.000000	14.683222	15.555910	354.739818
4025.000000	14.512368	13.392700	361.606540
4026.000000	12.503381	10.410927	515.002844
4027.000000	13.909869	13.919474	356.868827
4028.000000	14.967218	12.529875	589.178163
4029.000000	15.027157	15.640053	723.402998
4030.000000	15.012219	13.315790	505.280647
4031.000000	14.966159	15.508074	649.848633
4032.000000	16.149803	18.309120	484.844173
4033.000000	15.363586	15.273657	434.187898
4034.000000	15.238036	14.370948	762.751075
4035.000000	15.321729	15.278121	519.697964
4036.000000	14.510893	14.268451	645.225737
4037.000000	14.867044	16.328090	778.060136
4038.000000	15.890801	15.867600	302.193148
4039.000000	14.623348	16.030044	643.419049
4040.000000	15.156041	15.311779	688.880621
4041.000000	15.469506	15.487459	363.631919
4042.000000	14.276524	14.754436	771.735894
4043.000000	15.673107	15.255021	445.846994
4044.000000	13.976522	13.678618	830.236312
4045.000000	14.410372	13.625233	1119.669223
4046.000000	15.038978	16.045022	561.771903
4047.000000	15.917569	16.394387	896.670369
4048.000000	13.903387	14.871085	1241.953057
4049.000000	14.291562	14.246797	448.590189
4050.000000	14.284853	14.206761	936.425434
4051.000000	16.066203	16.973159	738.058540
4052.000000	15.185628	14.428296	690.338559
4053.000000	14.060709	13.367510	987.566485
4054.000000	13.765959	17.936655	948.118782
4055.000000	14.830783	15.274994	681.683237
4056.000000	16.387264	15.273982	782.805177
4057.000000	14.141762	13.332113	717.275896
4058.000000	15.368068	16.285178	710.402518
4059.000000	16.058000	15.830510	831.660405
4060.000000	14.880365	12.212406	408.139470
4061.000000	14.584732	14.402780	718.866115
4062.000000	14.214121	13.094510	615.313610
4063.000000	16.718018	17.366965	375.885905
4064.000000	16.608160	18.010307	695.119533
4065.000000	15.567235	13.938120	448.797738
4066.000000	14.388459	14.426802	373.918374
4067.000000	13.700073	12.309355	459.166964
4068.000000	14.013769	13.567555	442.884441
4069.000000	14.695835	15.109319	301.420530
4070.000000	13.411315	11.879262	531.083992
4071.000000	14.623592	12.664127	420.109396
4072.000000	14.022422	14.022395	345.006921
4073.000000	16.664684	18.725753	370.134096
4074.000000	14.350215	13.665881	370.343089
4075.000000	13.292425	12.592281	473.235624
4076.000000	15.820283	15.477172	580.502957
4077.000000	14.431915	14.254772	202.398947
4078.000000	12.652611	13.758794	469.380148
4079.000000	14.216339	14.003722	386.714311
4080.000000	13.978901	14.426255	266.709839
4081.000000	14.480492	14.060916	466.079495
4082.000000	13.217836	12.479574	368.610825
4083.000000	14.350704	15.573138	530.850220
4084.000000	11.895478	13.456920	492.513697
4085.000000	13.931679	13.453708	455.646752
4086.000000	13.644246	13.490917	533.595039
4087.000000	13.357322	12.312075	610.334163
4088.000000	14.219848	13.120180	323.633929
4089.000000	11.655430	10.435308	547.774953
4090.000000	13.207699	15.101014	489.936869
4091.000000	15.120825	17.255502	372.935906
4092.000000	12.594953	13.729235	902.135708
4093.000000	14.956927	16.177248	534.589030
4094.000000	15.061282	15.567009	745.449349
4095.000000	17.013896	15.841686	673.541473
4096.000000	13.846684	14.009524	340.181668
4097.000000	13.686237	12.244898	294.991271
4098.000000	14.186949	13.112005	781.111319
4099.000000	15.208797	16.486188	339.616802
4100.000000	13.596151	13.391924	955.368551
4101.000000	13.932625	14.375719	700.335417
4102.000000	14.389876	13.715532	272.939095
4103.000000	13.877396	14.352245	788.430900
4104.000000	15.739520	15.269641	751.161858
4105.000000	14.796020	14.557287	426.315800
4106.000000	14.097933	13.879772	456.790414
4107.000000	15.217395	12.748361	513.595949
4108.000000	11.979875	11.000280	388.044994
4109.000000	16.968772	18.069903	933.385615
4110.000000	14.370209	13.540840	223.374025
4111.000000	13.955354	13.723688	658.519997
4112.000000	13.376745	14.852966	562.480120
4113.000000	14.139510	13.781481	275.151395
4114.000000	14.882348	14.921069	406.653815
4115.000000	16.318994	15.868065	490.854032
4116.000000	13.081861	13.383723	316.924862
4117.000000	15.753945	13.955690	437.679045
4118.000000	14.139147	14.355447	353.268628
4119.000000	16.064478	18.404133	261.519443
4120.000000	14.583981	14.741197	481.427638
4121.000000	16.053868	15.941439	365.872530
4122.000000	17.007043	16.738667	373.773981
4123.000000	15.552488	15.157801	461.462577
4124.000000	15.836349	15.458231	212.872343
4125.000000	14.210142	13.697974	351.416724
4126.000000	14.841449	14.498759	318.432024
4127.000000	14.546160	12.553251	262.942286
4128.000000	16.007326	17.035618	240.828913
4129.000000	15.012200	16.979580	237.334009
4130.000000	16.989968	16.518165	192.291609
4131.000000	16.805043	15.088993	506.423619
4132.000000	15.004926	14.322083	282.284354
4133.000000	16.756835	15.195232	273.729930
4134.000000	16.595325	17.258121	163.670764
4135.000000	18.987277	18.212032	322.250673
4136.000000	18.436705	17.614505	150.798297
4137.000000	16.139720	15.614268	242.302905
4138.000000	16.085072	15.199320	114.607623
4139.000000	16.559510	14.808395	195.826563
4140.000000	15.603439	17.006988	89.680169
4141.000000	19.223526	17.645112	97.887991
4142.000000	16.881696	15.902428	105.919131
4143.000000	17.096516	20.281384	119.415183
4144.000000	16.799011	15.694367	82.118490
4145.000000	14.771035	14.353237	79.529608
4146.000000	17.276993	18.883511	106.970145
4147.000000	17.256476	18.477235	77.773341
4148.000000	19.156785	19.776078	213.494678
4149.000000	20.393271	20.289947	128.110008
4150.000000	18.258563	18.876939	153.818292
4151.000000	17.727308	18.713211	121.982443
4152.000000	18.269887	20.390854	93.121203
4153.000000	19.718348	19.126242	84.924253
4154.000000	18.373324	18.669254	64.597939
4155.000000	17.210895	17.593356	130.075530
4156.000000	20.074375	22.160638	71.345567
4157.000000	17.272375	19.129146	82.028772
4158.000000	19.102105	17.139850	85.562730
4159.000000	17.496511	17.830225	113.437103
4160.000000	21.473187	19.423561	146.560267
4161.000000	21.271303	20.218702	107.321744
4162.000000	20.775780	23.826853	91.466834
4163.000000	18.646541	16.915790	54.531904
4164.000000	20.161924	18.446599	162.907040
4165.000000	19.759182	20.751706	101.518695
4166.000000	20.111598	21.109058	80.311711
4167.000000	21.014801	20.827005	101.099941
4168.000000	18.917490	19.886536	137.283740
4169.000000	20.888279	19.317881	75.959672
4170.000000	18.601236	18.304676	79.730913
4171.000000	21.923663	24.047645	86.751278
4172.000000	22.492414	22.478179	78.998772
4173.000000	21.840197	22.086223	80.145612
4174.000000	19.284829	18.969925	148.288842
4175.000000	23.141425	26.391218	91.936695
4176.000000	20.896093	20.784378	105.504674
4177.000000	19.712557	18.989361	76.310121
4178.000000	22.350349	25.079947	111.583715
4179.000000	20.856770	19.760388	87.010399
4180.000000	22.300761	23.777939	112.560084
4181.000000	22.485896	24.562396	105.429616
4182.000000	21.113995	22.593674	127.829579
4183.000000	20.201079	20.283659	94.037264
4184.000000	25.471661	27.384214	129.458844
4185.000000	19.745009	18.837546	117.718869
4186.000000	18.601570	18.738219	115.964049
4187.000000	22.949759	21.512397	117.006969
4188.000000	23.068701	22.612204	160.893143
4189.000000	21.875118	23.372035	84.915008
4190.000000	21.138348	21.994378	85.156943
4191.000000	23.513815	24.735734	58.759743
4192.000000	21.646098	20.896647	110.133598
4193.000000	18.032787	17.424053	201.589866
4194.000000	18.991871	19.385257	93.709852
4195.000000	19.947996	18.656058	110.309622
4196.000000	23.043137	22.527481	89.174852
4197.000000	20.678461	18.330751	76.680635
4198.000000	24.213405	24.183906	83.532039
4199.000000	19.666663	21.470031	101.834422
4200.000000	19.714514	19.653266	117.198964
4201.000000	20.884009	20.266408	46.618444
4202.000000	19.921190	21.516222	71.448843
4203.000000	19.637396	19.116974	117.833350
4204.000000	19.428589	20.153594	95.571844
4205.000000	20.888367	21.824123	67.495889
4206.000000	19.207187	18.662330	135.183586
4207.000000	19.630154	20.426489	147.503747
4208.000000	17.776629	19.788547	70.179723
4209.000000	18.699449	20.413717	83.399221
4210.000000	18.936484	21.482799	75.111497
4211.000000	18.996343	18.325590	121.599081
4212.000000	17.327540	17.982696	89.602745
4213.000000	19.688584	19.829813	72.237872
4214.000000	18.488536	17.094831	85.444164
4215.000000	17.391083	16.390200	167.783723
4216.000000	17.854104	18.572903	87.022376
4217.000000	19.893655	17.394367	83.471970
4218.000000	16.274346	16.449529	85.891557
4219.000000	16.666991	16.262251	87.431565
4220.000000	14.817993	14.446608	61.319393
4221.000000	19.025118	19.608893	86.063793
4222.000000	17.313482	14.820053	63.229733
4223.000000	17.417578	16.278812	59.523760
4224.000000	15.797977	14.709054	123.363743
4225.000000	18.104705	17.201593	95.661904
4226.000000	14.386480	13.678129	51.071015
4227.000000	15.422572	14.186305	61.512893
4228.000000	15.839708	15.722158	65.084809
4229.000000	16.080881	16.183204	65.376609
4230.000000	16.004915	15.339138	78.745792
4231.000000	16.853284	17.208964	87.171660
4232.000000	16.042101	17.416509	73.449224
4233.000000	15.751697	16.270108	49.927168
4234.000000	17.186582	16.990675	70.319434
4235.000000	14.900362	15.553186	106.579467
4236.000000	13.917217	14.558178	150.190954
4237.000000	13.659051	12.861628	72.839658
4238.000000	15.289587	15.917533	93.296573
4239.000000	13.759738	13.473449	53.615393
4240.000000	13.951620	12.420818	70.717344
4241.000000	13.959455	14.509971	58.514272
4242.000000	14.619826	16.544883	60.457431
4243.000000	15.559946	15.629001	72.484568
4244.000000	14.770430	17.821258	70.413958
4245.000000	15.069431	16.431595	70.951650
4246.000000	14.796097	12.330283	66.043307
4247.000000	15.006133	15.667171	69.710965
4248.000000	13.538882	12.766560	62.710271
4249.000000	11.968529	11.040616	70.428417
4250.000000	13.267565	12.182461	57.602835
4251.000000	13.798105	13.259790	60.616741
4252.000000	13.850256	13.265519	72.213472
4253.000000	13.420289	13.930032	36.878472
4254.000000	12.831812	11.886832	70.011275
4255.000000	13.872232	13.896027	49.060230
4256.000000	13.433977	12.603273	76.808565
4257.000000	12.254415	13.066822	56.128390
4258.000000	14.512417	13.744686	76.723680
4259.000000	13.717960	12.900590	65.525809
4260.000000	13.073282	12.146037	44.858551
4261.000000	13.032915	12.605326	86.402096
4262.000000	13.221035	14.456154	102.198569
4263.000000	13.295263	12.722850	67.664270
4264.000000	12.314161	11.560025	61.951815
4265.000000	13.269882	13.152507	62.297396
4266.000000	12.289373	11.132496	98.631561
4267.000000	12.408931	12.255630	69.084219
4268.000000	12.749274	12.377512	48.285112
4269.000000	13.883226	14.429349	61.499771
4270.000000	12.973613	11.825718	64.311986
4271.000000	12.623864	11.950837	75.648365
4272.000000	13.237531	14.643969	90.120418
4273.000000	12.954752	10.810947	200.386004
4274.000000	13.142114	13.652965	76.351895
4275.000000	13.472554	12.446975	132.654546
4276.000000	12.817617	15.133284	160.622329
4277.000000	12.710577	13.074075	88.124536
4278.000000	13.218556	14.021401	210.063010
4279.000000	13.110318	14.551891	152.775849
4280.000000	13.576915	13.476376	131.846913
4281.000000	13.675647	13.193848	82.805767
4282.000000	11.874462	12.439081	118.010062
4283.000000	11.813324	12.034548	76.105365
4284.000000	13.446553	11.817761	61.480437
4285.000000	14.038048	13.161226	72.641243
4286.000000	12.406259	12.317875	91.080183
4287.000000	13.044458	12.563929	102.061913
4288.000000	12.535997	13.365836	75.350401
4289.000000	12.839891	13.595103	78.927565
4290.000000	14.601532	13.555767	89.223134
4291.000000	12.567629	13.072564	63.825601
4292.000000	12.311313	12.551460	63.630850
4293.000000	12.259651	13.370176	60.131759
4294.000000	12.809649	11.700450	53.426107
4295.000000	15.644964	16.202415	159.898195
4296.000000	13.016754	13.554910	105.537004
4297.000000	13.654804	13.149799	32.263519
4298.000000	12.623496	12.594021	70.016692
4299.000000	11.893128	11.781966	48.465474
4300.000000	12.629890	11.098973	52.630483
4301.000000	13.192751	12.104771	52.496450
4302.000000	12.766516	13.062138	87.309126
4303.000000	12.091477	11.678162	215.578003
4304.000000	12.727925	14.256881	78.624992
4305.000000	12.035389	11.829204	72.052138
4306.000000	12.971702	13.349806	49.344983
4307.000000	12.181489	12.417741	71.252419
4308.000000	11.622281	11.033942	77.500410
4309.000000	12.102800	12.037141	152.887189
4310.000000	10.662742	10.676790	79.418507
4311.000000	12.160453	11.560081	52.393493
4312.000000	12.054192	11.628803	87.120711
4313.000000	11.921224	11.998902	77.314413
4314.000000	12.457309	11.553147	112.027893
4315.000000	12.485609	12.400031	54.279063
4316.000000	12.018974	12.060387	49.234350
4317.000000	14.496682	15.113149	141.351126
4318.000000	13.621776	13.222528	94.111138
