# Magnets removed

# Scan parameters: power 16.000000 dBm, bandwidth 1.500000 Hz
# Frequency [MHz]	avg noise	std noise	peak value
3850.000000	1.766671	1.831071	706.283685
3851.000000	1.972017	1.998259	632.623766
3852.000000	1.993378	2.160715	356.722935
3853.000000	1.805505	1.750903	660.128965
3854.000000	1.747803	1.697796	492.343162
3855.000000	2.025228	1.878633	435.126113
3856.000000	2.103083	2.193282	574.339659
3857.000000	2.086874	2.209772	400.288702
3858.000000	2.049799	1.871611	515.336808
3859.000000	1.956765	2.030897	603.197474
3860.000000	2.059866	1.965850	304.441448
3861.000000	2.082335	1.878823	508.014481
3862.000000	1.932327	2.362210	726.688049
3863.000000	2.131382	1.951307	377.029457
3864.000000	2.326941	2.163078	627.307880
3865.000000	2.161312	2.131521	446.776971
3866.000000	2.341492	2.581392	295.823817
3867.000000	2.187511	2.564022	508.827861
3868.000000	2.226118	2.123367	299.946389
3869.000000	2.463434	2.362506	343.432420
3870.000000	2.225617	2.168770	324.847437
3871.000000	2.692417	2.307549	248.487460
3872.000000	2.188842	2.551939	368.763057
3873.000000	2.671703	2.468634	302.685424
3874.000000	2.635606	2.438861	153.315134
3875.000000	2.388073	2.666567	251.757871
3876.000000	2.715414	2.563921	173.528408
3877.000000	2.198278	2.140980	166.501345
3878.000000	2.995298	2.968173	243.840480
3879.000000	2.942791	2.947464	159.316083
3880.000000	2.864532	2.835786	187.367419
3881.000000	2.967371	3.011929	239.680808
3882.000000	2.648281	2.622399	85.441553
3883.000000	2.961146	3.003111	99.046176
3884.000000	2.630417	2.518705	150.415192
3885.000000	2.878918	2.747007	109.163872
3886.000000	2.862779	2.819166	118.881185
3887.000000	2.881530	3.172945	156.077700
3888.000000	3.243042	3.181616	42.472697
3889.000000	3.680321	3.462858	110.007125
3890.000000	3.255298	3.318665	81.102121
3891.000000	3.438462	3.459629	32.364955
3892.000000	3.204005	3.096909	151.267029
3893.000000	3.527560	3.173051	71.900287
3894.000000	3.694296	3.650827	68.628954
3895.000000	3.739037	4.199676	59.401103
3896.000000	3.941676	3.741401	58.795894
3897.000000	3.553953	3.364276	77.907718
3898.000000	3.832073	3.491311	103.722598
3899.000000	3.965416	4.157315	47.109764
3900.000000	4.517548	4.540973	68.067006
3901.000000	4.069781	4.033286	38.227650
3902.000000	4.307615	4.624885	36.196633
3903.000000	4.786275	4.578698	23.854697
3904.000000	4.283749	3.898680	22.857992
3905.000000	4.767939	4.795370	20.431484
3906.000000	4.694905	4.288958	28.918853
3907.000000	5.243811	5.824196	19.573456
3908.000000	5.049433	5.168824	45.434545
3909.000000	5.384928	5.310305	65.350017
3910.000000	4.776329	4.751655	17.265193
3911.000000	5.433192	5.043455	44.803381
3912.000000	5.003085	4.881874	70.517029
3913.000000	5.226495	5.671743	36.303860
3914.000000	5.708057	5.034948	72.111217
3915.000000	5.227890	5.405945	47.524249
3916.000000	5.157585	5.056810	80.397126
3917.000000	5.638290	5.527370	65.055390
3918.000000	5.703410	5.789753	117.121618
3919.000000	5.468356	5.212327	60.931889
3920.000000	6.175406	5.842451	81.964955
3921.000000	5.555818	5.717370	30.621446
3922.000000	6.422716	6.214962	26.436825
3923.000000	6.679322	5.954802	25.069882
3924.000000	6.194386	6.102720	43.164010
3925.000000	6.567705	6.568418	18.153266
3926.000000	6.327829	6.510494	34.135546
3927.000000	6.248467	5.185777	32.567073
3928.000000	6.541158	6.696231	36.384074
3929.000000	6.579373	6.125935	40.860381
3930.000000	6.373934	7.791483	79.474765
3931.000000	6.660929	6.178510	69.809691
3932.000000	6.253254	5.893432	38.979162
3933.000000	6.681530	6.108951	48.547336
3934.000000	6.713098	6.473929	69.651108
3935.000000	6.472647	5.954038	20.892849
3936.000000	7.216203	6.562191	60.925096
3937.000000	6.805374	6.337620	125.976972
3938.000000	7.909326	7.833979	31.759576
3939.000000	6.712622	6.300109	59.921628
3940.000000	7.665607	7.488483	124.444738
3941.000000	7.607462	7.561447	82.070199
3942.000000	6.921826	7.358691	139.562408
3943.000000	7.071021	7.025457	183.387815
3944.000000	7.900358	7.380822	109.330874
3945.000000	6.874353	6.965565	275.975766
3946.000000	7.333129	7.728195	120.737734
3947.000000	6.486924	6.151671	143.202561
3948.000000	8.013576	6.844446	317.819663
3949.000000	7.492289	7.530317	57.751744
3950.000000	7.984115	7.120910	212.651364
3951.000000	7.379061	7.777062	166.629888
3952.000000	7.701631	8.380151	59.183998
3953.000000	7.148115	7.267002	288.779289
3954.000000	6.675032	5.764515	160.146225
3955.000000	7.034954	6.438210	131.604285
3956.000000	6.989248	7.627665	239.252775
3957.000000	6.323165	7.174171	131.697897
3958.000000	6.071786	5.939294	134.590439
3959.000000	6.961804	7.476261	354.257145
3960.000000	7.630711	7.431817	192.297380
3961.000000	7.347789	6.893360	351.796663
3962.000000	6.596533	6.534919	395.920290
3963.000000	6.795274	6.554834	169.259570
3964.000000	7.079042	7.022902	274.138754
3965.000000	7.681357	7.416432	311.412394
3966.000000	7.181221	6.686175	383.312171
3967.000000	8.282490	8.201278	373.539150
3968.000000	7.848050	7.319314	430.858263
3969.000000	8.048516	7.269149	338.979138
3970.000000	6.676207	6.742394	673.704722
3971.000000	7.793030	7.912879	257.384980
3972.000000	6.798476	6.699586	400.384162
3973.000000	7.164254	6.707608	566.131578
3974.000000	6.254880	6.286202	292.734263
3975.000000	6.843144	7.702112	442.600766
3976.000000	6.993613	7.094186	417.056750
3977.000000	6.899575	7.053181	165.582070
3978.000000	7.565364	7.502584	462.297192
3979.000000	7.237771	8.278648	277.076497
3980.000000	7.607444	7.592996	256.283490
3981.000000	6.525036	6.846127	525.813434
3982.000000	6.756987	7.118590	406.551812
3983.000000	6.447843	6.269113	536.063590
3984.000000	6.623759	5.847883	543.642487
3985.000000	6.465921	6.415267	475.278755
3986.000000	6.454921	5.730129	617.080364
3987.000000	6.283427	6.207844	748.095009
3988.000000	6.525325	6.303858	503.455723
3989.000000	6.877402	6.221922	836.486100
3990.000000	6.539097	6.148973	943.635894
3991.000000	6.335709	7.626727	513.093609
3992.000000	6.886422	5.435359	928.927849
3993.000000	6.807365	6.277660	718.018350
3994.000000	6.529047	6.396921	701.975134
3995.000000	7.066803	6.846407	993.943176
3996.000000	6.571087	6.591941	572.165978
3997.000000	5.953400	5.369733	719.395567
3998.000000	6.089524	6.199477	810.281297
3999.000000	6.009648	6.192882	378.018934
4000.000000	5.950379	5.681890	870.008766
4001.000000	6.145633	5.636435	967.341420
4002.000000	6.849828	6.020042	603.396668
4003.000000	6.454116	5.897335	894.798260
4004.000000	5.789987	5.757774	514.749369
4005.000000	6.034275	5.311138	586.907149
4006.000000	6.310463	6.923817	753.321405
4007.000000	6.213534	6.030403	603.172784
4008.000000	6.275390	5.922084	487.126519
4009.000000	5.875833	5.724542	467.684702
4010.000000	6.248368	6.275230	224.276284
4011.000000	6.961423	6.902790	519.136212
4012.000000	5.965199	5.587972	442.186727
4013.000000	6.175314	6.795946	207.283830
4014.000000	6.334111	6.783603	441.628904
4015.000000	6.906189	6.490568	348.172240
4016.000000	6.097154	5.870904	243.596348
4017.000000	6.606937	6.847942	481.908508
4018.000000	6.041612	5.805377	388.310558
4019.000000	6.393797	7.284863	328.619206
4020.000000	6.104533	7.079580	535.017731
4021.000000	5.647004	5.646199	319.134027
4022.000000	6.613216	7.373611	322.244042
4023.000000	6.982514	6.334698	568.221444
4024.000000	6.481040	6.400467	148.907155
4025.000000	6.982192	7.364057	450.041231
4026.000000	7.575509	7.980742	456.869741
4027.000000	7.443689	7.545965	295.543171
4028.000000	6.075791	6.050394	650.749755
4029.000000	6.529190	5.724961	769.241890
4030.000000	6.490048	6.936884	524.210419
4031.000000	6.492153	5.587498	701.939474
4032.000000	6.942902	7.551235	566.522090
4033.000000	7.118546	7.656300	737.242653
4034.000000	6.845162	7.089659	558.909984
4035.000000	6.558257	6.411606	353.047146
4036.000000	7.575696	7.399450	650.597799
4037.000000	7.812505	9.130566	616.486321
4038.000000	6.769928	6.395580	312.953624
4039.000000	6.485562	6.662747	720.462672
4040.000000	6.853370	7.641621	489.562494
4041.000000	6.826373	6.925865	473.849091
4042.000000	7.013504	7.135881	847.495847
4043.000000	8.213672	7.487042	814.386101
4044.000000	9.042774	8.188948	616.571454
4045.000000	7.664229	7.863042	1051.735325
4046.000000	7.194726	7.113226	706.254298
4047.000000	7.286750	6.528633	851.219502
4048.000000	7.156762	7.055362	1278.308189
4049.000000	8.717992	9.855628	464.346476
4050.000000	8.014375	8.220508	1049.576566
4051.000000	8.731653	8.834182	923.100209
4052.000000	7.205492	6.327738	551.144990
4053.000000	8.365204	8.647958	1005.385847
4054.000000	7.163788	7.012510	1123.070733
4055.000000	7.456297	7.398501	526.399669
4056.000000	8.193141	7.641504	1112.094390
4057.000000	7.046578	6.895618	713.473770
4058.000000	8.766485	8.582641	638.436473
4059.000000	7.927341	8.713030	829.973103
4060.000000	7.806555	6.976210	365.379278
4061.000000	8.155327	8.610856	784.535876
4062.000000	8.177147	8.476076	559.363093
4063.000000	8.672677	8.450998	203.667701
4064.000000	8.255637	8.030224	726.940942
4065.000000	9.588136	10.171237	431.006478
4066.000000	9.793589	10.030633	213.939159
4067.000000	8.838457	9.902504	466.788340
4068.000000	8.072825	7.871112	195.460131
4069.000000	9.432398	8.774828	300.451457
4070.000000	8.918352	9.396027	551.151775
4071.000000	9.460161	9.334509	326.405141
4072.000000	8.231906	7.664003	511.194465
4073.000000	9.169340	7.943525	653.798788
4074.000000	8.314007	8.163559	276.021336
4075.000000	9.883211	8.907437	539.170058
4076.000000	10.425388	9.440148	503.574884
4077.000000	10.607252	11.551253	333.481163
4078.000000	10.137449	10.581297	685.003054
4079.000000	9.055618	8.815213	446.447612
4080.000000	9.925336	9.887569	589.307537
4081.000000	9.441816	9.680085	565.008016
4082.000000	9.975499	9.244864	629.753904
4083.000000	10.749627	10.309325	486.378528
4084.000000	10.339552	9.815326	684.749184
4085.000000	10.794538	10.626624	257.883137
4086.000000	10.620464	10.038135	583.069287
4087.000000	9.772366	9.216614	606.908332
4088.000000	11.308635	12.370858	364.013600
4089.000000	10.182814	9.838829	653.940352
4090.000000	11.991209	12.663674	623.207508
4091.000000	9.856520	10.185487	574.068820
4092.000000	10.104907	10.009793	557.175841
4093.000000	10.956380	11.350187	530.400019
4094.000000	10.671887	10.137927	514.880744
4095.000000	10.646468	10.868481	664.108364
4096.000000	11.540908	11.491361	333.610603
4097.000000	10.545644	9.759853	779.671010
4098.000000	11.077069	9.489402	772.472014
4099.000000	10.762628	10.766273	403.555374
4100.000000	11.303456	12.004950	573.476499
4101.000000	11.402843	9.993037	620.439428
4102.000000	11.170884	11.389130	353.693603
4103.000000	9.676402	8.569038	601.003195
4104.000000	11.185416	10.378415	409.115500
4105.000000	11.800820	11.182221	465.709643
4106.000000	10.469682	9.853803	601.823570
4107.000000	11.155733	10.675208	393.949694
4108.000000	9.831267	8.867377	565.202371
4109.000000	9.671378	9.027658	691.938042
4110.000000	12.038779	12.426194	343.897110
4111.000000	11.221922	11.279486	434.300627
4112.000000	10.548973	10.167411	618.835101
4113.000000	11.161789	10.427924	259.380119
4114.000000	11.372859	11.757829	300.206687
4115.000000	9.904929	8.947001	383.396319
4116.000000	11.138305	9.623147	288.744413
4117.000000	10.303900	11.152497	308.952015
4118.000000	12.324191	12.691274	469.358422
4119.000000	11.794807	10.927056	254.964721
4120.000000	11.258238	12.568215	283.958952
4121.000000	10.415650	11.925995	426.386191
4122.000000	10.812072	11.324988	267.286593
4123.000000	10.265812	9.089791	363.519036
4124.000000	12.361495	12.701871	133.916212
4125.000000	11.155691	10.198598	422.866587
4126.000000	11.942981	11.549354	375.648210
4127.000000	10.210823	10.162955	326.281872
4128.000000	11.598315	11.298771	229.152422
4129.000000	11.852403	11.602212	286.155840
4130.000000	11.247467	10.951763	148.208708
4131.000000	10.854693	10.336224	273.662020
4132.000000	10.554801	11.752493	198.738073
4133.000000	11.127639	11.787541	232.828016
4134.000000	11.802277	10.896919	113.311668
4135.000000	8.805291	9.400008	98.291915
4136.000000	11.051655	11.628883	125.645846
4137.000000	11.021313	11.038752	259.618563
4138.000000	11.064304	9.818350	89.264594
4139.000000	11.559337	11.190700	101.602371
4140.000000	11.257249	10.942284	84.425037
4141.000000	11.769836	11.887466	68.329377
4142.000000	11.591356	12.565858	93.977537
4143.000000	11.992606	11.728921	58.989939
4144.000000	11.895749	12.553895	39.797731
4145.000000	10.858839	10.138498	66.516776
4146.000000	10.270190	11.446680	91.193153
4147.000000	10.498256	9.528386	85.625841
4148.000000	10.379950	10.938689	52.198968
4149.000000	10.462867	10.760118	49.944948
4150.000000	9.878827	9.186215	50.905213
4151.000000	9.499461	10.402635	43.143853
4152.000000	10.504021	10.729706	31.498465
4153.000000	12.115985	12.771999	50.332642
4154.000000	11.137488	10.234172	76.584608
4155.000000	10.530058	11.360920	41.897957
4156.000000	9.971514	8.662513	59.312469
4157.000000	11.816032	11.384671	43.713080
4158.000000	11.391492	10.631715	87.109548
4159.000000	10.730641	10.409483	47.595205
4160.000000	11.492929	11.036825	86.117565
4161.000000	11.084678	9.996965	40.979189
4162.000000	10.968209	11.766761	59.856978
4163.000000	10.313327	9.633058	54.110626
4164.000000	10.010267	9.732232	52.114612
4165.000000	10.538846	9.158333	65.016051
4166.000000	11.097496	11.487356	43.805446
4167.000000	11.526358	9.676712	68.412567
4168.000000	10.633888	10.603141	62.997169
4169.000000	10.485616	10.639706	46.078192
4170.000000	10.680261	10.388102	77.081238
4171.000000	10.198247	9.320384	46.996730
4172.000000	9.785035	9.248403	43.532742
4173.000000	9.241517	8.119711	33.840513
4174.000000	10.566320	9.600686	48.182637
4175.000000	9.645149	10.278514	67.759461
4176.000000	9.776762	9.602862	45.908996
4177.000000	10.048483	11.176794	52.845888
4178.000000	9.849661	10.262333	38.903249
4179.000000	8.731686	9.518191	44.691239
4180.000000	9.602144	9.531572	38.730089
4181.000000	9.808311	10.009473	37.745699
4182.000000	10.626373	9.968773	40.371042
4183.000000	8.925234	8.009351	58.546003
4184.000000	8.440603	8.862802	35.698025
4185.000000	7.536845	6.636447	50.199106
4186.000000	9.233755	8.885388	61.189579
4187.000000	8.360594	8.644630	65.787422
4188.000000	8.766885	9.458820	43.464199
4189.000000	7.328700	7.140383	23.992687
4190.000000	7.496123	7.080510	47.329155
4191.000000	7.145831	7.254221	38.586713
4192.000000	7.875953	7.520703	53.429425
4193.000000	7.344117	7.355302	38.100042
4194.000000	6.823399	6.977384	41.036264
4195.000000	6.808519	6.216441	26.518355
4196.000000	7.065230	6.771547	34.879650
4197.000000	7.734395	7.439165	39.063139
4198.000000	7.675908	8.067010	29.685637
4199.000000	5.759783	6.320522	44.652724
4200.000000	6.226981	5.790155	20.601397
4201.000000	5.847706	6.250020	27.827193
4202.000000	7.191787	6.602224	46.605802
4203.000000	7.294380	7.040040	69.463096
4204.000000	5.377050	5.213454	38.404541
4205.000000	5.707734	5.662326	19.505084
4206.000000	6.074266	5.833597	29.622343
4207.000000	6.496372	6.768485	35.743025
4208.000000	6.115471	6.361999	24.057126
4209.000000	5.692163	5.601665	17.551843
4210.000000	5.719878	5.961152	21.212751
4211.000000	5.469547	5.455864	27.077292
4212.000000	5.500636	5.852242	27.174191
4213.000000	5.335628	4.977787	20.541769
4214.000000	5.565907	5.567995	21.193042
4215.000000	5.603175	5.938455	33.340772
4216.000000	4.481273	4.885434	24.009696
4217.000000	4.853681	5.409491	29.177383
4218.000000	5.521404	5.428378	24.253255
4219.000000	4.521028	4.808514	17.868209
4220.000000	5.356140	4.777154	29.647101
4221.000000	4.917318	5.487985	20.821426
4222.000000	5.333149	4.820685	30.974376
4223.000000	5.156353	5.326316	20.236764
4224.000000	5.022926	4.891172	26.856184
4225.000000	4.972887	5.526105	24.899029
4226.000000	4.485535	4.624460	15.865674
4227.000000	4.671977	4.665872	18.025711
4228.000000	4.973242	5.130602	30.801189
4229.000000	5.325965	5.756224	34.665285
4230.000000	5.023835	4.779109	19.939192
4231.000000	4.562085	4.528178	17.279631
4232.000000	4.889282	4.787116	14.590707
4233.000000	4.888120	4.932929	31.610585
4234.000000	4.822336	5.080729	21.393139
4235.000000	4.173292	3.900979	40.309646
4236.000000	4.566037	3.925349	38.567058
4237.000000	4.850533	4.910502	24.129299
4238.000000	5.189260	4.916557	30.589740
4239.000000	4.578918	4.577553	26.206111
4240.000000	5.116817	5.156935	22.159840
4241.000000	4.446601	4.727216	20.434782
4242.000000	4.224537	4.358359	28.057795
4243.000000	4.603176	4.536426	21.521154
4244.000000	4.638058	4.855869	26.744548
4245.000000	4.491175	4.409461	44.532565
4246.000000	4.788947	4.453399	21.814476
4247.000000	4.841090	4.904274	23.862334
4248.000000	4.818851	4.760891	29.335383
4249.000000	4.233389	3.835145	27.568436
4250.000000	4.727305	4.527861	34.529458
4251.000000	4.626651	4.365311	30.123577
4252.000000	4.343255	4.535868	46.094196
4253.000000	4.660950	4.473427	17.800778
4254.000000	4.212745	4.875677	63.620391
4255.000000	4.202571	4.643651	18.976122
4256.000000	4.976499	4.966876	28.093826
4257.000000	4.465675	4.035665	33.922153
4258.000000	4.458452	4.045006	24.811665
4259.000000	4.765881	4.271134	19.707413
4260.000000	4.592880	4.635065	14.567930
4261.000000	4.849732	4.601442	39.452071
4262.000000	4.242431	4.092180	35.711797
4263.000000	4.507823	4.701274	33.844296
4264.000000	4.433680	4.087474	32.296895
4265.000000	4.196150	4.099222	18.205313
4266.000000	4.521761	4.541681	17.116097
4267.000000	4.315235	4.399895	31.332252
4268.000000	4.355194	4.358314	39.353595
4269.000000	4.533655	4.578239	44.870850
4270.000000	4.130080	4.155936	87.864411
4271.000000	4.917729	5.872287	70.283650
4272.000000	4.438419	4.207076	73.017546
4273.000000	4.864308	4.939468	101.463239
4274.000000	4.951828	5.123304	24.092020
4275.000000	4.349768	4.193897	77.002072
4276.000000	4.675684	4.737751	80.834882
4277.000000	4.017220	3.781379	58.161694
4278.000000	4.072577	3.699741	89.188624
4279.000000	4.398136	4.864792	53.646104
4280.000000	4.269947	4.289811	79.949619
4281.000000	4.190180	4.660201	87.288847
4282.000000	3.995762	3.875955	69.569330
4283.000000	3.967814	3.510119	35.423425
4284.000000	3.908142	4.100641	24.587231
4285.000000	4.211072	4.276183	26.778356
4286.000000	3.731965	3.522366	34.100068
4287.000000	4.596011	4.787201	25.010564
4288.000000	4.143543	3.943743	45.877957
4289.000000	3.901364	4.073403	38.756120
4290.000000	3.832625	3.946297	55.699580
4291.000000	4.362788	5.020589	21.801155
4292.000000	4.051896	3.982326	40.933723
4293.000000	4.284977	4.436815	21.544984
4294.000000	3.752751	3.454602	28.632001
4295.000000	3.791635	3.858134	52.670222
4296.000000	3.648653	3.394596	20.622251
4297.000000	3.858288	3.785845	23.139982
4298.000000	3.747322	3.211792	24.968972
4299.000000	3.802347	3.957176	42.125792
4300.000000	3.518522	3.152235	24.908782
4301.000000	3.579610	3.816686	29.156190
4302.000000	3.148432	3.204007	19.352415
4303.000000	3.863232	3.867717	46.214428
4304.000000	3.628341	4.194326	34.638618
4305.000000	3.418328	3.441929	36.736000
4306.000000	4.016465	3.818364	51.426449
4307.000000	4.337164	4.485657	34.290240
4308.000000	3.683357	3.719239	50.810885
4309.000000	3.691516	3.646699	54.212677
4310.000000	3.419995	3.443756	32.745744
4311.000000	4.214533	4.480262	35.920215
4312.000000	3.439098	3.930569	79.696772
4313.000000	3.844144	3.373733	43.886151
4314.000000	3.688430	3.471103	93.376493
4315.000000	3.874143	3.740419	69.946033
4316.000000	3.606790	3.549755	26.876831
4317.000000	3.782151	3.983069	61.701984
4318.000000	3.347561	3.223718	31.493516
4319.000000	3.619124	3.400731	86.845487
4320.000000	3.784353	3.979053	48.262882
4321.000000	3.728839	3.786147	54.952820
4322.000000	4.023177	4.847311	24.592538
4323.000000	3.898737	3.907133	62.589571
4324.000000	4.488312	4.204155	57.655863
4325.000000	3.696545	3.663449	58.135263
4326.000000	3.448578	3.028921	75.523102
4327.000000	3.963898	3.909778	21.499495
4328.000000	4.422544	4.001308	89.532405
4329.000000	3.310545	3.226595	73.197521
4330.000000	3.905588	3.949849	86.075379
4331.000000	4.337093	4.434820	59.004899
4332.000000	3.921428	4.028110	78.509682
4333.000000	3.800879	4.346702	100.463484
4334.000000	3.819253	3.830958	111.891861
4335.000000	4.719086	4.543787	74.098274
