

# Pol full trans, nothing else changed
# Scan parameters: power 16.000000 dBm, bandwidth 1.500000 Hz
# Frequency [MHz]	avg noise	std noise	peak value
3851.000000	0.124946	0.131432	2919.389459
3853.000000	0.128529	0.164665	3076.157506
3855.000000	0.143642	0.236046	1993.110932
3857.000000	0.136621	0.173064	1964.481736
3859.000000	0.102691	0.118235	2913.971761
3861.000000	0.102638	0.098158	2371.473706
3863.000000	0.114355	0.130752	1159.839397
3865.000000	0.119305	0.114203	2240.405730
3867.000000	0.106760	0.112694	2788.675260
3869.000000	0.127831	0.134701	1939.560302
3871.000000	0.122929	0.128104	1555.129943
3873.000000	0.131104	0.139028	2712.147712
3875.000000	0.123516	0.121147	2529.785731
3877.000000	0.135808	0.139704	1493.792410
3879.000000	0.131060	0.135290	2248.869039
3881.000000	0.111451	0.117792	2847.305733
3883.000000	0.142629	0.252616	2080.448490
3885.000000	0.106931	0.104581	1276.226153
3887.000000	0.137601	0.172801	2131.581490
3889.000000	0.103841	0.095805	2045.343609
3891.000000	0.140353	0.152209	1149.970653
3893.000000	0.127632	0.132956	1325.045608
3895.000000	0.122634	0.108978	1893.114925
3897.000000	0.132873	0.154394	1521.604002
3899.000000	0.137598	0.132532	840.420316
3901.000000	0.137596	0.139664	1718.668908
3903.000000	0.147389	0.150075	1912.728068
3905.000000	0.127435	0.126450	1340.355228
3907.000000	0.143859	0.137637	1363.572083
3909.000000	0.120881	0.149214	1975.467079
3911.000000	0.123604	0.123155	1665.035485
3913.000000	0.137229	0.164926	804.816001
3915.000000	0.141666	0.154059	1623.065373
3917.000000	0.133760	0.130992	1986.888526
3919.000000	0.154017	0.187335	1345.830265
3921.000000	0.143427	0.147330	963.114807
3923.000000	0.126100	0.115761	1513.714962
3925.000000	0.123560	0.119227	1216.879236
3927.000000	0.128430	0.135407	615.671986
3929.000000	0.126179	0.121243	815.565317
3931.000000	0.129382	0.117966	1044.477806
3933.000000	0.130383	0.125486	901.992566
3935.000000	0.150465	0.148456	691.808905
3937.000000	0.140077	0.135241	1341.124048
3939.000000	0.121851	0.133715	1366.316608
3941.000000	0.122521	0.153506	783.939682
3943.000000	0.130933	0.135785	1010.216505
3945.000000	0.125126	0.124331	1530.417947
3947.000000	0.125187	0.123748	1324.893311
3949.000000	0.131538	0.133913	733.643267
3951.000000	0.139742	0.141203	1476.230242
3953.000000	0.136544	0.160419	1468.214551
3955.000000	0.130982	0.149960	883.805132
3957.000000	0.125967	0.135677	793.411729
3959.000000	0.121795	0.115002	1175.922694
3961.000000	0.136889	0.137912	999.527256
3963.000000	0.145312	0.147285	502.615102
3965.000000	0.131707	0.146688	911.916988
3967.000000	0.113400	0.111693	1008.394655
3969.000000	0.135096	0.139628	683.285559
3971.000000	0.137151	0.143048	539.312274
3973.000000	0.128717	0.121773	907.945097
3975.000000	0.129438	0.143748	871.091983
3977.000000	0.126754	0.136860	509.194649
3979.000000	0.129338	0.126123	762.974286
3981.000000	0.115526	0.122861	1060.062714
3983.000000	0.124938	0.113363	933.939280
3985.000000	0.117153	0.127319	672.748282
3987.000000	0.122159	0.111813	1351.198992
3989.000000	0.115060	0.111669	1505.769178
3991.000000	0.121665	0.113005	876.552738
3993.000000	0.137169	0.127203	1003.314775
3995.000000	0.123478	0.128135	1497.198764
3997.000000	0.134688	0.148658	1284.054425
3999.000000	0.137597	0.164994	672.430874
4001.000000	0.114760	0.116883	1422.329489
4003.000000	0.125988	0.116498	1528.198679
4005.000000	0.117865	0.114926	920.685756
4007.000000	0.116538	0.113072	821.080129
4009.000000	0.116563	0.135192	951.748892
4011.000000	0.116948	0.119519	627.595955
4013.000000	0.121640	0.128608	256.769165
4015.000000	0.131144	0.117682	499.374614
4017.000000	0.117947	0.103252	535.344794
4019.000000	0.122638	0.115472	298.064389
4021.000000	0.119686	0.113163	190.981419
4023.000000	0.128284	0.120025	237.714995
4025.000000	0.136117	0.127724	171.563197
4027.000000	0.128362	0.123363	59.004707
4029.000000	0.116376	0.122871	63.883570
4031.000000	0.130384	0.125580	68.138018
4033.000000	0.103125	0.109335	41.831256
4035.000000	0.119298	0.111505	30.547579
4037.000000	0.123654	0.126057	41.245626
4039.000000	0.118513	0.114108	49.728988
4041.000000	0.131672	0.123122	37.965664
4043.000000	0.119354	0.104125	50.484064
4045.000000	0.121090	0.132729	97.743881
4047.000000	0.125902	0.126045	89.733323
4049.000000	0.134453	0.147233	60.222780
4051.000000	0.113950	0.115519	147.039146
4053.000000	0.136325	0.138030	146.729199
4055.000000	0.130416	0.128350	88.415124
4057.000000	0.136555	0.127923	71.309148
4059.000000	0.130981	0.125742	111.791679
4061.000000	0.112625	0.108570	115.939323
4063.000000	0.133689	0.122765	82.204142
4065.000000	0.110305	0.114929	167.220183
4067.000000	0.131274	0.119012	213.907984
4069.000000	0.127420	0.127634	147.715114
4071.000000	0.141104	0.159158	118.377579
4073.000000	0.122133	0.129519	190.784881
4075.000000	0.130996	0.128059	150.916211
4077.000000	0.110171	0.107452	95.707309
4079.000000	0.130263	0.111233	152.226832
4081.000000	0.125047	0.128098	210.266090
4083.000000	0.130632	0.129646	209.460867
4085.000000	0.121614	0.123757	156.204903
4087.000000	0.119683	0.118119	295.751126
4089.000000	0.111439	0.099845	301.555772
4091.000000	0.117294	0.116196	182.916604
4093.000000	0.123857	0.117831	233.561608
4095.000000	0.125978	0.136211	310.235868
4097.000000	0.108516	0.101190	238.906733
4099.000000	0.131150	0.132572	98.644029
4101.000000	0.131161	0.123822	157.781527
4103.000000	0.126534	0.125100	145.751101
4105.000000	0.110862	0.109623	89.378367
4107.000000	0.108467	0.096141	66.891416
4109.000000	0.127056	0.123156	84.984231
4111.000000	0.136529	0.127985	55.988324
4113.000000	0.139053	0.135018	21.040826
4115.000000	0.116014	0.117289	31.437895
4117.000000	0.113725	0.112176	50.284673
4119.000000	0.115554	0.117528	51.705402
4121.000000	0.113075	0.100723	40.497196
4123.000000	0.120655	0.122230	80.577427
4125.000000	0.108013	0.108790	78.922357
4127.000000	0.110536	0.128582	53.764722
4129.000000	0.099521	0.101422	77.289528
4131.000000	0.117384	0.127850	100.747138
4133.000000	0.123328	0.117259	84.452891
4135.000000	0.134703	0.147146	45.816169
4137.000000	0.115627	0.111264	115.619591
4139.000000	0.137515	0.141163	162.731403
4141.000000	0.118844	0.110580	114.730819
4143.000000	0.124902	0.118188	171.328003
4145.000000	0.114077	0.103031	244.826697
4147.000000	0.111505	0.114391	207.815552
4149.000000	0.118649	0.129713	104.082597
4151.000000	0.115167	0.115104	243.038980
4153.000000	0.103686	0.103081	292.691079
4155.000000	0.106269	0.104349	223.651647
4157.000000	0.112654	0.112638	237.808952
4159.000000	0.102867	0.106735	426.376695
4161.000000	0.106116	0.105486	421.466349
4163.000000	0.096050	0.109767	239.084349
4165.000000	0.093613	0.087008	491.141355
4167.000000	0.109375	0.104718	604.954548
4169.000000	0.109127	0.107110	400.476090
4171.000000	0.098508	0.097841	305.952937
4173.000000	0.107806	0.113871	493.193920
4175.000000	0.109510	0.106788	383.705126
4177.000000	0.095722	0.098762	190.453424
4179.000000	0.097014	0.101825	247.488765
4181.000000	0.086656	0.078393	281.506791
4183.000000	0.101805	0.099917	193.956229
4185.000000	0.093739	0.088054	121.611864
4187.000000	0.097902	0.100295	211.382971
4189.000000	0.081068	0.082957	225.160885
4191.000000	0.091463	0.088007	138.270450
4193.000000	0.094961	0.100031	214.224114
4195.000000	0.084962	0.089670	325.260711
4197.000000	0.087115	0.094117	259.407810
4199.000000	0.088774	0.076204	127.447966
4201.000000	0.085521	0.092849	227.884964
4203.000000	0.091080	0.093501	201.522206
4205.000000	0.083305	0.078034	105.695923
4207.000000	0.075820	0.068956	91.386949
4209.000000	0.089047	0.092487	135.119300
4211.000000	0.083483	0.080520	127.297671
4213.000000	0.077189	0.073039	80.099764
4215.000000	0.089342	0.094445	166.012567
4217.000000	0.081883	0.085044	194.291695
4219.000000	0.084601	0.082164	133.495859
4221.000000	0.079514	0.073755	98.330567
4223.000000	0.087855	0.087699	124.064516
4225.000000	0.086907	0.088059	93.461237
4227.000000	0.087793	0.080910	42.082910
4229.000000	0.074247	0.068353	47.632486
4231.000000	0.077571	0.087699	55.522692
4233.000000	0.078460	0.073122	50.884543
4235.000000	0.085965	0.087038	44.990274
4237.000000	0.078792	0.076185	124.490269
4239.000000	0.077333	0.080865	157.537974
4241.000000	0.076266	0.075756	107.121175
4243.000000	0.083580	0.079761	144.188230
4245.000000	0.086659	0.074283	227.095674
4247.000000	0.086998	0.084574	217.904064
4249.000000	0.084088	0.094122	130.466430
4251.000000	0.080894	0.082716	333.681552
4253.000000	0.081012	0.080962	458.388062
4255.000000	0.076006	0.076242	398.718384
4257.000000	0.085181	0.098652	449.434541
4259.000000	0.075394	0.089111	762.695699
4261.000000	0.085167	0.082329	654.061064
4263.000000	0.086048	0.089625	296.882440
4265.000000	0.082260	0.075648	554.015827
4267.000000	0.082205	0.077014	625.826035
4269.000000	0.080334	0.075530	436.930640
4271.000000	0.089841	0.084561	326.797466
4273.000000	0.072837	0.074440	593.023519
4275.000000	0.082582	0.083991	571.578945
4277.000000	0.077942	0.079754	340.137552
4279.000000	0.077390	0.073534	482.386961
4281.000000	0.083362	0.080033	593.969322
4283.000000	0.087392	0.096920	420.539114
4285.000000	0.079306	0.081447	282.158649
4287.000000	0.072787	0.074760	458.507302
4289.000000	0.074616	0.071339	447.019694
4291.000000	0.074164	0.077715	240.177160
4293.000000	0.080699	0.082911	288.870223
4295.000000	0.073690	0.074031	385.253397
4297.000000	0.075451	0.072995	319.577671
4299.000000	0.069671	0.063657	149.573533
4301.000000	0.068932	0.069723	286.633266
4303.000000	0.058278	0.058281	264.967185
4305.000000	0.067307	0.069726	142.647484
4307.000000	0.066231	0.069134	119.414016
4309.000000	0.068523	0.069003	134.716249
4311.000000	0.071544	0.072102	93.654362
4313.000000	0.066910	0.066268	40.929677
4315.000000	0.069497	0.074878	78.085098
4317.000000	0.071080	0.066663	88.441420
4319.000000	0.068561	0.064447	70.054550
4321.000000	0.069031	0.063232	65.921129
4323.000000	0.066058	0.063960	120.250156
4325.000000	0.062612	0.060729	137.615541
4327.000000	0.074539	0.061760	83.912991
4329.000000	0.074494	0.070782	121.115105
4331.000000	0.065623	0.061700	134.051853
4333.000000	0.067644	0.065545	86.660464
4335.000000	0.065178	0.062155	53.367284
4337.000000	0.071709	0.064994	84.231009
4339.000000	0.075021	0.075339	81.905026
4341.000000	0.071120	0.067862	30.944523
4343.000000	0.076573	0.076423	36.140332
4345.000000	0.071346	0.068954	49.072137
4347.000000	0.077032	0.074060	44.053106
4349.000000	0.074904	0.071437	30.791151
4351.000000	0.082632	0.082680	77.310977
4353.000000	0.078825	0.085875	113.548246
4355.000000	0.076575	0.072750	92.778100
4357.000000	0.072224	0.072627	93.774419
4359.000000	0.071618	0.064254	137.398601
4361.000000	0.072595	0.084063	104.785426
4363.000000	0.072395	0.075791	43.563800
4365.000000	0.079184	0.070750	63.484541
4367.000000	0.078452	0.074523	66.236701
4369.000000	0.081740	0.083277	51.715826
4371.000000	0.073897	0.062815	40.080910
4373.000000	0.066820	0.067291	58.288856
4375.000000	0.059391	0.050589	41.164122
4377.000000	0.070452	0.073344	20.373267
4379.000000	0.075582	0.079530	19.676717
4381.000000	0.081037	0.080775	24.934735
4383.000000	0.072240	0.078563	17.929830
4385.000000	0.073233	0.079087	10.382783
4387.000000	0.070782	0.071625	12.879329
4389.000000	0.078126	0.074193	9.463080
4391.000000	0.069392	0.068724	2.234505
4393.000000	0.068910	0.072038	0.940347
4395.000000	0.074187	0.066622	0.876906
4397.000000	0.062233	0.059244	3.636078
4399.000000	0.075378	0.076551	2.287043
4401.000000	0.081948	0.082862	3.911726
4403.000000	0.074552	0.073097	3.944722
4405.000000	0.075686	0.069723	7.440974
4407.000000	0.068046	0.065784	7.083549
4409.000000	0.072789	0.077206	10.834617
4411.000000	0.075841	0.069018	14.591838
4413.000000	0.085419	0.088950	6.229371
4415.000000	0.075226	0.081513	6.496043
4417.000000	0.078254	0.069243	5.125218
4419.000000	0.073029	0.082897	6.945560
4421.000000	0.080593	0.078032	6.613639
4423.000000	0.087937	0.080893	20.349173
4425.000000	0.077477	0.081487	32.948349
4427.000000	0.077915	0.077503	27.447899
4429.000000	0.078471	0.085154	53.701556
4431.000000	0.086094	0.091722	75.916725
4433.000000	0.076496	0.077107	69.728695
4435.000000	0.083558	0.077970	54.688975
4437.000000	0.080243	0.079921	87.884111
4439.000000	0.089768	0.091203	103.605291
4441.000000	0.084993	0.085949	60.093932
4443.000000	0.083811	0.080793	72.788107
4445.000000	0.080111	0.079020	111.428663
4447.000000	0.084962	0.084366	71.888309
4449.000000	0.086145	0.088826	31.288233
4451.000000	0.077907	0.066567	56.847187
4453.000000	0.089175	0.092131	42.898846
4455.000000	0.089684	0.097408	20.591977
4457.000000	0.090679	0.087452	12.102224
4459.000000	0.094534	0.090811	5.907523
4461.000000	0.085394	0.085691	2.097209
4463.000000	0.086486	0.083360	0.274942
4465.000000	0.088875	0.084308	0.566328
4467.000000	0.086268	0.097286	4.718818
4469.000000	0.095978	0.094582	7.309974
4471.000000	0.098857	0.089706	4.552154
4473.000000	0.093014	0.093297	5.667626
4475.000000	0.093885	0.086944	6.004758
4477.000000	0.099731	0.097627	2.052253
4479.000000	0.091013	0.091123	1.860400
4481.000000	0.089581	0.090810	5.156462
4483.000000	0.107092	0.109985	5.389188
4485.000000	0.083651	0.082493	5.791792
4487.000000	0.080834	0.074084	8.948829
4489.000000	0.094918	0.100800	13.592279
4491.000000	0.087340	0.087933	9.035271
4493.000000	0.107015	0.100316	6.324604
4495.000000	0.093140	0.091146	14.289360
4497.000000	0.098805	0.094856	5.990260
4499.000000	0.099644	0.090572	2.242096
4501.000000	0.096927	0.088992	4.907884
4503.000000	0.088452	0.094219	5.986939
4505.000000	0.092846	0.089688	0.562181
4507.000000	0.093541	0.081277	0.455648
4509.000000	0.095441	0.110356	0.369475
4511.000000	0.088273	0.079560	0.383240
4513.000000	0.094032	0.101579	0.616351
4515.000000	0.093353	0.078832	1.744255
4517.000000	0.102563	0.096448	5.805566
4519.000000	0.097390	0.104240	3.338296
4521.000000	0.084878	0.079422	1.322494
4523.000000	0.096434	0.099950	2.025842
4525.000000	0.095131	0.095461	4.088212
4527.000000	0.098334	0.099404	4.892647
4529.000000	0.094473	0.089499	12.863339
4531.000000	0.085716	0.088308	21.274059
4533.000000	0.079329	0.082414	24.032939
4535.000000	0.086775	0.094350	23.594273
4537.000000	0.089246	0.097855	45.942453
4539.000000	0.096306	0.095628	56.859127
4541.000000	0.085958	0.088921	30.538312
4543.000000	0.082034	0.091541	30.687673
4545.000000	0.083563	0.078496	26.039785
4547.000000	0.077065	0.073138	14.049947
4549.000000	0.091928	0.095686	6.016551
4551.000000	0.098107	0.097614	10.722130
4553.000000	0.085476	0.087847	12.256495
4555.000000	0.087949	0.078397	15.386272
4557.000000	0.093426	0.093669	33.034598
4559.000000	0.085860	0.084407	67.414927
4561.000000	0.086010	0.078676	73.788042
4563.000000	0.086215	0.091821	39.943372
4565.000000	0.083821	0.082059	62.072959
4567.000000	0.086867	0.090781	59.983140
4569.000000	0.085595	0.086058	40.759738
4571.000000	0.082641	0.082173	37.482830
4573.000000	0.094570	0.100546	73.338951
4575.000000	0.089728	0.079809	101.589546
4577.000000	0.078665	0.088396	72.365349
4579.000000	0.092580	0.089455	137.804087
4581.000000	0.084254	0.084199	223.261282
4583.000000	0.066477	0.074276	206.767404
4585.000000	0.083969	0.096918	145.500636
4587.000000	0.085921	0.088595	292.082226
4589.000000	0.076745	0.075871	352.442483
4591.000000	0.080951	0.085943	228.946262
4593.000000	0.085955	0.078382	287.331838
4595.000000	0.077387	0.073902	432.544163
4597.000000	0.089840	0.087486	384.134953
4599.000000	0.076660	0.081342	205.636542
4601.000000	0.090355	0.095516	432.270191
4603.000000	0.084561	0.087153	399.750378
4605.000000	0.080695	0.074906	244.157932
4607.000000	0.069054	0.072210	251.183105
4609.000000	0.076244	0.077218	360.968188
4611.000000	0.079477	0.080096	331.820475
4613.000000	0.087337	0.085972	181.754128
4615.000000	0.080055	0.089975	362.091740
4617.000000	0.080652	0.081593	458.244346
4619.000000	0.081310	0.080998	334.959704
4621.000000	0.078475	0.077348	276.162366
4623.000000	0.075782	0.085408	467.481321
4625.000000	0.070110	0.072489	395.100928
4627.000000	0.076216	0.077784	182.586284
4629.000000	0.073825	0.069427	248.720474
4631.000000	0.076342	0.075236	310.158922
4633.000000	0.083335	0.079179	233.333597
4635.000000	0.075704	0.080222	184.337687
4637.000000	0.086665	0.088398	357.089736
4639.000000	0.069485	0.072897	361.559645
4641.000000	0.085645	0.088031	223.025649
4643.000000	0.066995	0.060537	301.933381
4645.000000	0.093991	0.099219	458.020208
4647.000000	0.092299	0.085420	381.346469
4649.000000	0.080039	0.077061	195.502590
4651.000000	0.077844	0.070377	391.063742
4653.000000	0.080987	0.088767	426.240852
4655.000000	0.079616	0.075844	258.207279
4657.000000	0.075775	0.074832	272.407629
4659.000000	0.078018	0.099770	434.440226
4661.000000	0.071047	0.072831	421.187857
4663.000000	0.081919	0.075900	201.972355
4665.000000	0.094339	0.099509	367.410881
4667.000000	0.083473	0.087779	391.404649
4669.000000	0.095808	0.092132	244.911628
4671.000000	0.091639	0.088475	199.890055
4673.000000	0.095726	0.102540	332.550120
4675.000000	0.086367	0.087584	312.194619
4677.000000	0.095927	0.117045	191.634782
4679.000000	0.093383	0.100866	278.175291
4681.000000	0.077599	0.070954	356.464891
4683.000000	0.098947	0.102252	225.913473
4685.000000	0.084875	0.081052	129.672153
4687.000000	0.084438	0.075513	187.051561
4689.000000	0.094533	0.093902	210.512979
4691.000000	0.102865	0.100826	156.966849
4693.000000	0.103558	0.101071	231.618323
4695.000000	0.091166	0.094044	375.375351
4697.000000	0.103524	0.116988	369.278344
4699.000000	0.093595	0.101296	195.928992
4701.000000	0.092340	0.086111	410.386971
4703.000000	0.095597	0.096575	399.406262
4705.000000	0.094814	0.098623	207.431887
4707.000000	0.097848	0.095224	174.972860
4709.000000	0.098437	0.093276	292.173039
4711.000000	0.096175	0.092782	310.810203
4713.000000	0.097754	0.096892	160.614835
4715.000000	0.088452	0.094833	335.118551
4717.000000	0.099544	0.090281	424.867487
4719.000000	0.100417	0.121860	393.633072
4721.000000	0.104506	0.100940	344.657843
4723.000000	0.088143	0.083433	562.305672
4725.000000	0.105464	0.105804	475.224049
4727.000000	0.097693	0.095397	309.848544
4729.000000	0.104086	0.117527	606.835672
4731.000000	0.099726	0.092050	927.920693
4733.000000	0.092236	0.119188	854.752502
4735.000000	0.102603	0.124699	653.070978
4737.000000	0.114383	0.126502	1245.240581
4739.000000	0.091511	0.098210	1301.229134
4741.000000	0.110365	0.134279	789.343251
4743.000000	0.105599	0.116958	997.973232
4745.000000	0.096049	0.093895	1384.121426
4747.000000	0.099801	0.123070	1048.407680
4749.000000	0.111532	0.122701	504.556316
4751.000000	0.094863	0.102469	1009.332842
4753.000000	0.098997	0.110467	1051.095823
4755.000000	0.109382	0.147308	680.837926
4757.000000	0.111077	0.106963	697.411843
4759.000000	0.103184	0.096102	1062.526845
4761.000000	0.102422	0.106373	934.896321
4763.000000	0.106715	0.142103	483.425598
4765.000000	0.107959	0.118790	945.356046
4767.000000	0.094771	0.093660	1216.017373
4769.000000	0.109135	0.140990	925.234656
4771.000000	0.104808	0.103805	781.572171
4773.000000	0.093870	0.102853	1254.545575
4775.000000	0.099728	0.173808	1103.511909
4777.000000	0.121514	0.127958	599.749718
4779.000000	0.108769	0.111544	842.447025
4781.000000	0.105330	0.110182	1011.264270
4783.000000	0.113587	0.143593	731.161667
4785.000000	0.104326	0.128700	446.659803
4787.000000	0.094289	0.103780	696.477695
4789.000000	0.092648	0.088222	620.277273
4791.000000	0.099880	0.095156	383.302340
4793.000000	0.110140	0.133215	567.875396
4795.000000	0.100888	0.092110	971.006872
4797.000000	0.090276	0.096996	901.395863
4799.000000	0.103556	0.142669	529.798023
4801.000000	0.103782	0.104054	1141.974661
4803.000000	0.107274	0.119700	1334.449336
4805.000000	0.110376	0.160290	914.763637
4807.000000	0.104971	0.115735	949.047850
4809.000000	0.105437	0.108495	1475.331437
4811.000000	0.107103	0.103132	1315.097750
4813.000000	0.104959	0.145820	704.250707
4815.000000	0.104700	0.133058	1453.531476
4817.000000	0.094465	0.076501	1980.182711
4819.000000	0.114362	0.157753	1477.443295
4821.000000	0.128887	0.177916	1237.201202
4823.000000	0.107253	0.115981	2165.032323
