# 

# Scan parameters: power 16.000000 dBm, bandwidth 1.500000 Hz
# Frequency [MHz]	avg noise	std noise	peak value
4000.000000	12.364219	11.519527	51.812257
4001.000000	8.156647	8.815577	62.550268
4002.000000	10.351519	10.067332	38.030620
4003.000000	8.992490	9.618841	49.802486
4004.000000	10.631857	10.629256	62.411520
4005.000000	9.901467	9.189811	66.982424
4006.000000	9.181036	9.204455	97.891363
4007.000000	10.587412	12.265623	50.838041
4008.000000	8.784097	8.491013	50.870281
4009.000000	9.347662	9.872499	48.714219
4010.000000	10.036863	11.487680	45.427774
4011.000000	10.102014	10.339734	35.694383
4012.000000	9.249641	8.290441	36.080416
4013.000000	10.098176	10.549009	59.581641
4014.000000	9.159963	8.503147	88.608049
4015.000000	9.612118	9.443017	41.205620
4016.000000	9.103385	8.906270	46.992732
4017.000000	10.576333	12.611168	39.687742
4018.000000	8.951383	9.051220	44.426882
4019.000000	9.803916	10.053054	105.834732
4020.000000	10.678150	10.805506	62.286416
4021.000000	9.893977	11.319919	42.740038
4022.000000	9.892262	11.255266	40.025284
4023.000000	10.452903	10.816923	70.270100
4024.000000	10.151609	11.573873	45.783561
4025.000000	9.816988	9.593963	45.278774
4026.000000	9.679239	10.245023	43.271858
4027.000000	9.998373	10.548070	30.507807
4028.000000	9.082565	8.626693	38.591325
4029.000000	9.514300	9.323748	41.925252
4030.000000	9.386841	9.183104	55.846642
4031.000000	9.489214	8.855677	50.734812
4032.000000	9.886283	10.073698	46.085076
4033.000000	11.124717	10.675874	76.271652
4034.000000	12.417083	11.894593	64.338149
4035.000000	24.795317	25.509144	82.139957
4036.000000	1356.402069	1445.333218	8542.751045
4037.000000	517.692529	571.430989	1899.157348
4038.000000	400.897078	401.432553	1605.652154
4039.000000	297.214876	292.765726	1379.467864
4040.000000	264.350435	267.933914	1363.536705
4041.000000	245.937225	226.904370	1982.851644
4042.000000	214.262101	227.726947	878.805103
4043.000000	224.265989	232.448518	891.492113
4044.000000	175.831081	174.090483	868.156071
4045.000000	187.269513	191.603443	751.814646
4046.000000	165.229337	168.319177	880.643809
4047.000000	190.495799	180.360496	693.903211
4048.000000	177.315839	177.034248	684.840712
4049.000000	169.142802	167.844528	857.858795
4050.000000	157.246143	154.132521	915.197259
4051.000000	147.391633	154.058883	809.994278
4052.000000	161.339157	150.381089	828.839711
4053.000000	147.286234	152.725852	455.642485
4054.000000	165.191142	156.648089	467.242964
4055.000000	132.499912	129.558637	894.873002
4056.000000	144.928667	162.533693	613.277391
4057.000000	130.174863	136.826345	713.007429
4058.000000	140.449974	137.616888	621.895006
4059.000000	128.102995	120.547401	680.495711
4060.000000	115.565337	116.779683	352.098888
4061.000000	108.043694	100.219952	503.005578
4062.000000	102.892772	96.804666	608.227706
4063.000000	84.834231	91.994273	412.056596
4064.000000	95.923453	88.858256	456.009179
4065.000000	83.181076	83.476417	639.106106
4066.000000	73.655436	77.979946	249.642964
4067.000000	77.818671	70.247907	252.752734
4068.000000	67.374617	66.210411	447.337985
4069.000000	61.598445	70.903859	462.802408
4070.000000	56.922367	55.365991	299.780516
4071.000000	56.614698	58.803427	236.497573
4072.000000	46.278579	52.817530	230.392488
4073.000000	40.888570	40.556667	273.077112
4074.000000	43.242278	41.740806	264.080285
4075.000000	35.875624	32.960466	136.106652
4076.000000	39.007849	37.729205	163.763878
4077.000000	34.844315	36.335609	142.939198
4078.000000	29.960844	27.107719	197.164454
4079.000000	28.280677	28.502528	154.637579
4080.000000	26.147770	25.453267	179.499523
4081.000000	26.094322	25.530413	83.341891
4082.000000	23.894317	22.715090	94.833926
4083.000000	25.596712	24.561983	167.361978
4084.000000	21.292659	23.059716	128.072927
4085.000000	23.545911	24.612440	159.720412
4086.000000	23.051492	22.465356	160.949649
4087.000000	24.581703	22.052053	109.613785
4088.000000	21.970515	23.562894	153.450464
4089.000000	26.751879	27.394018	113.935413
4090.000000	27.872454	26.218691	144.389625
4091.000000	25.235953	25.389727	127.499634
4092.000000	24.445038	24.133086	192.086467
4093.000000	26.004537	30.181609	164.079500
4094.000000	30.035978	29.570706	210.193835
4095.000000	28.217028	26.902994	141.480037
4096.000000	29.635115	33.111143	150.564027
4097.000000	35.660544	32.790544	152.736377
4098.000000	35.155229	33.497918	72.774567
4099.000000	34.989931	35.621423	173.541107
4100.000000	32.974349	33.690909	138.585738
4101.000000	40.271691	42.714722	203.961728
4102.000000	41.356860	38.769654	297.196306
4103.000000	41.487562	40.697668	205.851996
4104.000000	44.940666	49.953611	259.718151
4105.000000	52.249104	50.532844	249.348664
4106.000000	49.917166	53.393786	310.133621
4107.000000	44.939042	41.202857	202.095678
4108.000000	56.969564	57.356277	292.722512
4109.000000	55.805617	54.457734	186.209344
4110.000000	53.781184	49.462972	243.989530
4111.000000	59.419057	59.746646	194.695893
4112.000000	67.500757	64.121172	262.401259
4113.000000	69.598559	70.673274	298.389239
4114.000000	77.755335	78.217102	235.407385
4115.000000	65.175996	66.107820	244.683640
4116.000000	72.941241	76.188979	481.894476
4117.000000	87.894945	97.294879	319.715688
4118.000000	77.962456	80.841467	472.657775
4119.000000	95.695803	80.994342	428.847531
4120.000000	87.290905	80.522714	376.314076
4121.000000	101.768007	96.371859	354.657175
4122.000000	114.848081	102.998184	315.868602
4123.000000	100.774926	90.173769	860.870198
4124.000000	117.215780	119.205385	482.534284
4125.000000	111.304351	101.834531	760.827938
4126.000000	111.790300	111.229448	575.842647
4127.000000	126.064193	137.783061	377.495398
4128.000000	135.139711	127.924352	489.445644
4129.000000	151.648356	156.797180	1202.057565
4130.000000	151.682534	147.301162	706.424913
4131.000000	168.286567	168.774518	939.374850
4132.000000	183.767699	162.217236	745.211084
4133.000000	188.891237	183.047583	1270.227137
4134.000000	197.330636	204.834066	751.469947
4135.000000	238.241192	246.939773	1293.766521
4136.000000	247.387359	234.623727	1301.989461
4137.000000	247.590235	223.888444	1101.933491
4138.000000	305.677051	274.843871	1415.851188
4139.000000	337.779500	332.100734	1433.988321
4140.000000	388.631874	452.296574	1787.676706
4141.000000	445.263857	451.289043	1714.797026
4142.000000	539.779043	536.514797	3226.054696
4143.000000	628.620436	600.272402	2300.987740
4144.000000	694.118151	631.290844	2956.171773
4145.000000	778.204304	670.808565	3346.692398
4146.000000	964.497386	855.143601	3349.715181
4147.000000	1301.286353	1257.733353	5085.953975
4148.000000	1290.109766	1313.027066	7173.731770
4149.000000	1666.557005	1582.196128	10896.010585
4150.000000	2163.068095	2326.204164	9247.594388
4151.000000	2757.642525	2649.482719	9396.143707
4152.000000	2933.621391	2843.581276	13260.128516
4153.000000	3596.829509	3337.413890	10220.322031
4154.000000	4881.727881	4805.097570	24942.567455
4155.000000	5144.336034	5783.631926	23760.763385
4156.000000	5289.811595	5332.039567	22952.056410
4157.000000	6564.153554	6308.009890	25720.565989
4158.000000	7613.329442	8343.763478	43817.787666
4159.000000	8238.808043	8228.315651	30893.243039
4160.000000	8361.694427	8086.202309	29580.516934
4161.000000	8496.730956	8236.194529	68506.737265
4162.000000	10475.670321	9970.667081	50369.639340
4163.000000	9970.684130	10774.317632	51056.057681
4164.000000	11853.926143	13344.682485	54441.541729
4165.000000	11659.404535	11244.290178	38535.231892
4166.000000	12628.076676	12623.989511	76381.445395
4167.000000	11925.858431	12201.178386	59067.109149
4168.000000	10330.306441	10095.806968	37247.766370
4169.000000	12041.934385	13036.282512	54525.540105
4170.000000	10202.287680	9468.609344	35567.552085
4171.000000	7208.550540	7033.785604	44900.331326
4172.000000	8025.687105	8612.390625	45179.583588
4173.000000	7473.569768	7168.492530	45866.946550
4174.000000	7197.243002	7574.414559	26485.388331
4175.000000	5992.344566	5772.986834	40403.783047
4176.000000	6500.995045	6611.552094	55430.202875
4177.000000	6715.292604	6240.232221	28532.635554
4178.000000	6981.320270	7523.118665	35825.747474
4179.000000	8694.502984	8882.541790	35586.439970
4180.000000	9264.249439	7999.701289	42832.802325
4181.000000	9772.219241	9633.245584	28116.994467
4182.000000	11569.579332	12213.740716	44807.009604
4183.000000	11018.533511	10752.464147	63757.772269
4184.000000	11580.978416	10805.227894	58390.129678
4185.000000	11440.936124	11495.047587	44232.079632
4186.000000	9818.596615	9777.352199	39866.173037
4187.000000	8853.430783	9228.037842	33348.370953
4188.000000	7330.759772	7100.801854	31244.212531
4189.000000	6530.260157	7127.069729	24953.838363
4190.000000	5179.403913	5335.556047	17578.097237
4191.000000	3849.061642	3663.091768	22195.822299
4192.000000	2970.448205	3032.510489	10988.681610
4193.000000	2495.057430	2383.636042	10755.839698
4194.000000	2157.391121	2053.835579	11565.918305
4195.000000	1649.968723	1679.494514	4980.612294
4196.000000	967.600699	1041.487474	5427.073650
4197.000000	34.402127	34.091831	169.700825
4198.000000	12.448081	13.203114	49.533025
4199.000000	10.964651	10.768828	68.088791
4200.000000	9.865645	10.079084	49.511945
4201.000000	9.644390	10.802383	38.690650
4202.000000	9.977261	9.962912	27.098295
4203.000000	9.070136	9.142077	36.354280
4204.000000	10.636830	11.396403	66.284445
4205.000000	10.098470	12.474313	43.367990
4206.000000	9.748069	9.143857	51.995431
4207.000000	10.192068	10.021965	33.523399
4208.000000	9.940900	9.715139	53.137232
4209.000000	10.252222	10.997549	32.119715
4210.000000	10.340685	12.580053	51.015349
4211.000000	9.419610	8.562206	54.049879
4212.000000	10.939974	11.960128	35.738625
4213.000000	10.036140	9.515220	37.129181
4214.000000	9.971632	11.332657	30.945536
4215.000000	10.286262	10.220137	63.666184
4216.000000	9.431513	9.725579	31.488793
4217.000000	10.114504	10.596555	47.575075
4218.000000	11.194886	11.104949	37.787199
4219.000000	9.770879	9.875611	53.265453
4220.000000	10.152035	9.466939	45.089194
4221.000000	9.431210	10.102741	103.365161
4222.000000	9.849870	9.702896	43.814065
4223.000000	8.859689	10.033366	74.278937
4224.000000	9.897837	11.384787	95.421057
4225.000000	9.278006	9.920757	53.361809
4226.000000	9.450148	8.715603	38.510880
4227.000000	9.791861	11.094710	51.778642
4228.000000	9.112821	8.772445	32.906332
4229.000000	10.163653	10.276220	86.621073
4230.000000	9.420327	8.950156	64.752121
4231.000000	9.832557	10.687261	79.628938
4232.000000	11.114336	11.370668	49.807630
4233.000000	9.858662	9.135661	50.952142
4234.000000	9.512188	9.419978	71.364116
4235.000000	9.283287	10.320611	36.508417
4236.000000	11.458245	11.410114	65.690929
4237.000000	9.556685	9.736025	50.456356
4238.000000	9.955327	10.254713	48.299591
4239.000000	9.781928	10.499726	149.548380
4240.000000	9.572926	11.341203	163.640580
4241.000000	8.916931	8.220591	87.001407
4242.000000	10.464945	12.048611	39.445679
4243.000000	9.676883	9.801787	55.856350
4244.000000	9.810881	10.488110	78.123880
4245.000000	10.083692	9.608875	53.268411
4246.000000	10.539596	11.479102	88.213074
4247.000000	9.834427	9.574401	39.436927
4248.000000	10.226464	10.464080	124.153714
4249.000000	10.133085	10.169673	97.191607
4250.000000	8.827241	9.099011	79.466461
4251.000000	9.095966	11.904100	54.903925
4252.000000	10.355537	10.406551	28.802441
4253.000000	10.211088	9.446069	65.115605
4254.000000	10.415369	11.348149	124.785104
4255.000000	10.096380	9.464363	116.536049
4256.000000	10.168041	10.197971	77.571225
4257.000000	9.716564	11.036460	67.462437
4258.000000	9.082704	8.734155	70.249351
4259.000000	7.892943	7.246364	62.316932
4260.000000	10.029224	9.306452	72.825611
4261.000000	9.869161	11.009810	108.168716
4262.000000	9.278004	9.084337	145.264346
4263.000000	9.617713	11.157646	106.910237
4264.000000	10.649366	10.296621	58.803886
4265.000000	8.190481	8.807354	55.017447
4266.000000	10.103636	10.019873	36.613530
4267.000000	10.157656	8.592221	37.963938
4268.000000	9.720414	10.609974	41.075067
4269.000000	9.451248	9.652005	118.400006
4270.000000	10.150006	10.315460	57.938293
4271.000000	9.719342	10.212455	66.692979
4272.000000	9.950126	10.033560	82.771392
4273.000000	9.364193	9.105547	27.844017
4274.000000	10.983841	11.881367	61.362460
4275.000000	10.034711	10.183815	94.711520
4276.000000	9.796627	9.655041	84.539585
4277.000000	9.593340	9.956833	75.160260
4278.000000	9.200154	7.774629	34.259522
4279.000000	8.976920	9.137276	65.048328
4280.000000	10.279873	9.676730	34.862228
4281.000000	9.132632	10.681314	70.490666
4282.000000	10.057010	9.504493	38.930409
4283.000000	10.199236	10.173350	55.076060
4284.000000	9.191292	12.462302	73.168919
4285.000000	9.996132	10.242648	70.219891
4286.000000	9.668410	10.202546	64.253379
4287.000000	8.556078	9.408194	47.369539
4288.000000	9.806043	9.450852	31.680759
4289.000000	9.842671	9.988932	49.111416
4290.000000	9.469898	11.335747	40.564010
4291.000000	9.614829	9.185996	73.532576
4292.000000	9.905817	9.486828	56.433825
4293.000000	9.093832	8.906294	50.451077
4294.000000	10.494718	9.707585	68.299999
4295.000000	9.946852	10.465604	49.337029
4296.000000	10.411029	10.845361	44.786409
4297.000000	10.362496	12.784686	61.091523
4298.000000	10.401895	12.835609	32.820476
4299.000000	11.115457	11.230631	74.782003
4300.000000	10.057089	11.164000	41.063875
4301.000000	9.737336	8.217820	35.388629
4302.000000	9.285164	10.012099	44.580431
4303.000000	9.349400	9.187601	30.180469
4304.000000	9.801549	8.518485	33.342974
4305.000000	9.122852	10.081013	58.779844
4306.000000	9.300165	9.913107	39.635463
4307.000000	8.567963	8.243828	45.145665
4308.000000	8.390299	8.218388	94.521046
4309.000000	9.149799	9.696633	33.732156
4310.000000	9.940623	10.549167	66.419407
4311.000000	9.466777	10.776009	37.544613
4312.000000	11.286234	10.724807	72.182439
4313.000000	10.396188	10.472920	30.149057
4314.000000	9.644834	9.688503	37.063234
4315.000000	10.085288	11.299746	45.515100
4316.000000	10.715722	11.421471	58.426554
4317.000000	10.816833	10.666439	51.100743
4318.000000	8.958948	8.896276	36.135946
4319.000000	9.741440	9.633327	35.015646
4320.000000	11.096086	11.897879	48.356789
4321.000000	9.036541	9.422378	64.120108
4322.000000	8.388473	8.758657	53.785679
4323.000000	9.441851	8.951592	50.137104
4324.000000	8.958926	8.606360	40.766322
4325.000000	10.471570	9.642089	48.246027
4326.000000	10.287708	9.649649	85.748248
4327.000000	9.540242	9.124637	59.039237
4328.000000	10.032468	12.618665	38.450305
4329.000000	9.807454	10.126089	33.928844
4330.000000	10.281197	10.877477	44.871904
4331.000000	9.635937	8.353732	53.717282
4332.000000	10.534629	10.291134	43.040763
4333.000000	9.193287	9.559664	69.568708
4334.000000	9.915647	9.068876	41.962180
4335.000000	8.969873	8.250162	55.245530
4336.000000	10.252156	11.520372	77.805824
4337.000000	10.294416	10.665457	54.818827
4338.000000	9.481487	11.405402	61.532829
4339.000000	10.378952	9.753553	34.921937
4340.000000	9.864649	9.048166	39.836452
4341.000000	8.942377	9.242565	61.674553
4342.000000	9.989620	8.856884	52.256279
4343.000000	9.803938	10.344831	46.396121
4344.000000	10.093060	9.756135	45.216093
4345.000000	11.206872	11.895008	50.293164
4346.000000	10.270403	10.348930	36.417921
4347.000000	11.091469	11.898360	53.253795
4348.000000	10.535359	10.507150	34.262147
4349.000000	10.658940	11.101643	45.505207
4350.000000	9.558474	10.189807	66.028529
4351.000000	10.049734	9.211382	38.338261
4352.000000	10.105683	11.961174	45.888868
4353.000000	11.328626	10.948392	52.633801
4354.000000	10.451331	10.814338	30.689024
4355.000000	11.551581	11.758174	46.811010
4356.000000	8.850067	9.512499	46.140427
4357.000000	9.643183	8.811893	35.193528
4358.000000	10.921340	10.259821	42.184905
4359.000000	8.564379	8.287229	39.184565
4360.000000	9.834114	9.986455	39.341243
4361.000000	9.279300	10.601668	35.765602
4362.000000	9.597565	10.414027	41.863352
4363.000000	10.098213	10.566269	42.613478
4364.000000	9.701101	9.247371	35.805950
4365.000000	9.495965	10.769605	37.245735
4366.000000	10.235263	10.072348	42.196544
4367.000000	8.367800	8.467140	39.674947
4368.000000	9.555395	10.291923	50.043305
4369.000000	10.284872	10.977851	28.637178
4370.000000	10.035375	10.993588	71.143050
4371.000000	10.070190	8.925386	27.745988
4372.000000	10.253664	9.979237	45.411918
4373.000000	11.103977	10.816089	62.930196
4374.000000	9.324361	9.687197	47.682253
4375.000000	9.049309	10.691399	39.501741
4376.000000	9.629183	9.833056	43.326442
4377.000000	8.766862	8.788859	37.678818
4378.000000	9.934844	10.055908	48.377538
4379.000000	10.455060	11.115569	84.622319
4380.000000	9.947462	10.768146	38.770143
4381.000000	9.171606	8.370926	61.031147
4382.000000	10.671359	10.188034	37.261766
4383.000000	10.316640	12.849671	66.187201
4384.000000	9.535114	10.579938	35.989718
4385.000000	9.830134	10.127035	40.739890
4386.000000	10.527493	12.207602	35.474475
4387.000000	10.038387	12.433962	61.858654
4388.000000	10.634782	10.626818	62.305802
4389.000000	8.692304	9.436264	53.333225
4390.000000	9.072860	9.049866	48.317661
4391.000000	9.615508	9.923698	47.385406
4392.000000	9.963583	9.769274	44.064856
4393.000000	9.581734	9.510045	26.766787
4394.000000	10.421446	11.398925	97.442129
4395.000000	9.668699	10.350852	50.135912
4396.000000	9.825541	10.928629	53.856499
4397.000000	11.850460	12.164134	48.575988
4398.000000	9.635657	10.925465	43.398205
4399.000000	10.079658	9.130969	51.810970
4400.000000	9.191857	9.101167	32.819840
4401.000000	10.530312	12.437598	54.103397
4402.000000	10.573851	10.103572	79.064905
4403.000000	11.032864	11.452961	38.845617
4404.000000	10.361970	9.882983	35.943359
4405.000000	9.133899	12.619362	38.650471
4406.000000	8.890662	11.037660	45.929977
4407.000000	9.839320	9.263922	45.536620
4408.000000	10.503411	9.543098	49.726961
4409.000000	10.093300	11.479307	34.965889
4410.000000	9.410005	10.112117	45.684104
4411.000000	10.413683	15.202400	44.080779
4412.000000	10.548282	11.313944	59.267951
4413.000000	9.702591	10.879553	54.576835
4414.000000	9.906647	11.392969	48.600839
4415.000000	9.169711	8.694184	59.515157
4416.000000	8.734798	9.347312	96.538198
4417.000000	10.559773	10.131614	31.224620
4418.000000	11.273106	10.468650	42.341717
4419.000000	10.510028	10.285295	38.092079
4420.000000	9.784607	9.134387	37.566438
4421.000000	10.613238	11.202906	63.805345
4422.000000	9.867444	9.242010	33.582069
4423.000000	9.448168	10.092347	74.114880
4424.000000	9.907683	9.370262	31.606818
4425.000000	9.506055	9.978895	32.622716
4426.000000	9.656742	10.976398	40.855279
4427.000000	11.041090	11.710255	43.028925
4428.000000	9.476423	8.704681	47.026349
4429.000000	10.329617	10.098529	43.502469
4430.000000	10.709406	11.368194	54.727853
4431.000000	8.889988	9.976231	48.930008
4432.000000	9.440366	9.341489	38.844653
4433.000000	10.107472	9.585652	36.349775
4434.000000	9.451204	9.923049	63.048016
4435.000000	9.802566	9.339785	29.219039
4436.000000	9.530466	10.466594	41.731681
4437.000000	10.017754	10.301401	47.687349
4438.000000	9.429489	11.076281	61.757106
4439.000000	10.072515	10.194878	35.309891
4440.000000	10.193256	9.324859	43.729350
4441.000000	9.174355	10.076339	55.345706
4442.000000	10.046378	9.020999	26.204691
4443.000000	9.106302	11.174290	41.214449
4444.000000	9.816785	9.409434	34.959138
4445.000000	8.613117	9.460165	59.716749
4446.000000	8.901543	9.234248	69.831296
4447.000000	10.543629	9.934786	42.709410
4448.000000	10.912681	12.949399	55.258931
4449.000000	8.991414	8.938370	67.471355
4450.000000	9.854621	10.023918	56.105662
4451.000000	10.497689	10.630850	38.838971
4452.000000	9.565400	8.482740	44.102338
4453.000000	9.725521	9.369405	67.795652
4454.000000	8.977521	8.559524	48.428117
4455.000000	9.100605	10.030495	54.838673
4456.000000	10.633603	10.434620	39.113040
4457.000000	9.122285	9.220946	47.724166
4458.000000	9.644693	10.573164	44.280389
4459.000000	9.468520	9.054598	42.450020
4460.000000	9.458340	8.889615	62.433280
4461.000000	8.607963	9.149294	54.477596
4462.000000	10.195154	11.416639	61.504993
4463.000000	9.957605	11.415173	27.553468
4464.000000	10.082746	9.436119	36.199266
4465.000000	9.599435	11.452129	39.449569
