

# Weak magnets in place
# Scan parameters: power 19.000000 dBm, bandwidth 1.500000 Hz
# Frequency [MHz]	avg noise	std noise	peak value
3850.000000	0.090683	0.098231	491.245602
3851.000000	1.224295	0.454769	436.270118
3852.000000	0.088703	0.100311	293.960278
3853.000000	0.094558	0.099392	637.063658
3854.000000	1.099068	0.417872	510.413320
3855.000000	0.096431	0.106051	523.089543
3856.000000	0.082895	0.084585	845.122390
3857.000000	0.096299	0.111941	604.396971
3858.000000	1.114771	0.450633	644.951447
3859.000000	0.350183	0.218084	874.424342
3860.000000	0.096330	0.096932	495.132682
3861.000000	0.508772	0.289891	775.840683
3862.000000	0.091891	0.103935	912.342196
3863.000000	0.089155	0.107839	400.145252
3864.000000	0.084760	0.082426	850.535836
3865.000000	0.088724	0.094061	768.305598
3866.000000	0.096000	0.130102	515.267967
3867.000000	0.085107	0.073899	914.752737
3868.000000	0.090927	0.090543	684.899700
3869.000000	0.096418	0.082391	607.443010
3870.000000	0.092192	0.092589	866.057965
3871.000000	0.082445	0.083110	495.902666
3872.000000	0.088869	0.090349	732.869201
3873.000000	0.088199	0.086788	862.184810
3874.000000	0.090333	0.095904	398.976846
3875.000000	0.094503	0.106799	844.128070
3876.000000	0.083481	0.083432	849.696169
3877.000000	0.102940	0.097521	468.269849
3878.000000	0.100082	0.110700	934.604567
3879.000000	1.035047	0.457517	790.674927
3880.000000	0.095630	0.089510	690.129477
3881.000000	0.102064	0.102608	1055.872553
3882.000000	0.094293	0.093055	700.535465
3883.000000	0.088523	0.086547	896.145646
3884.000000	0.090473	0.091920	1104.686586
3885.000000	0.090439	0.088107	610.127320
3886.000000	0.088705	0.097293	993.661102
3887.000000	0.096026	0.100578	1181.667800
3888.000000	0.092307	0.085332	562.316144
3889.000000	0.091660	0.096674	1225.324121
3890.000000	0.099221	0.102693	1096.190588
3891.000000	0.097416	0.100747	739.100282
3892.000000	0.087021	0.090730	1369.313065
3893.000000	0.108535	0.130303	941.169262
3894.000000	0.106900	0.109081	987.104189
3895.000000	0.099325	0.105013	1368.077125
3896.000000	0.107465	0.110390	787.026884
3897.000000	0.092940	0.098044	1250.841822
3898.000000	0.104249	0.115389	1457.944913
3899.000000	0.578010	0.320876	690.860800
3900.000000	0.106609	0.129466	1361.533315
3901.000000	0.124752	0.114824	1326.250802
3902.000000	0.110264	0.117176	767.280906
3903.000000	0.101190	0.131860	1291.044069
3904.000000	0.104242	0.096310	1042.168046
3905.000000	0.350272	0.242101	789.071460
3906.000000	0.108441	0.108904	1198.663462
3907.000000	0.107625	0.106388	842.497120
3908.000000	0.102675	0.123953	906.006926
3909.000000	0.102327	0.099191	1186.104994
3910.000000	0.107672	0.121164	608.729592
3911.000000	0.112337	0.102381	1031.763962
3912.000000	0.103409	0.115236	1092.650363
3913.000000	0.103394	0.109230	533.095747
3914.000000	0.106105	0.109817	1114.137344
3915.000000	0.668720	0.389692	923.815580
3916.000000	0.118698	0.116042	660.204530
3917.000000	0.103621	0.112154	1170.170155
3918.000000	0.106964	0.117508	851.681278
3919.000000	0.113948	0.115011	849.421750
3920.000000	0.095420	0.117715	1208.405890
3921.000000	0.109709	0.114249	642.323260
3922.000000	0.097752	0.120143	925.703514
3923.000000	0.776327	0.369468	1019.887890
3924.000000	0.105942	0.093246	449.447905
3925.000000	0.111230	0.124398	995.843598
3926.000000	0.099937	0.105063	966.022914
3927.000000	0.929846	0.491880	570.976768
3928.000000	0.117439	0.130102	1063.594535
3929.000000	0.121588	0.131832	843.968078
3930.000000	1.525834	0.556332	637.877731
3931.000000	0.145125	0.167528	969.458321
3932.000000	0.162203	0.157140	555.418092
3933.000000	0.139686	0.153081	595.247420
3934.000000	0.125932	0.120560	646.686826
3935.000000	0.105721	0.106066	276.266098
3936.000000	0.100856	0.105838	430.852737
3937.000000	0.101070	0.092875	392.095957
3938.000000	0.098790	0.097287	148.550093
3939.000000	0.097240	0.088408	324.111066
3940.000000	0.098449	0.113258	258.966434
3941.000000	0.108525	0.105306	189.186942
3942.000000	0.093997	0.088811	363.121455
3943.000000	0.089605	0.085408	293.155086
3944.000000	0.103818	0.101863	340.229479
3945.000000	0.105959	0.107513	530.400958
3946.000000	0.103126	0.108520	346.876140
3947.000000	0.099517	0.097052	540.677966
3948.000000	0.094800	0.095573	754.457858
3949.000000	0.092841	0.085588	370.680443
3950.000000	0.107219	0.101983	910.396859
3951.000000	0.113817	0.121683	1059.819725
3952.000000	0.093882	0.110702	658.279574
3953.000000	0.094360	0.105899	1407.698381
3954.000000	0.110464	0.112635	1192.248009
3955.000000	0.110791	0.147877	1079.400197
3956.000000	0.103207	0.098616	1592.632614
3957.000000	0.099087	0.117859	1088.812702
3958.000000	0.683107	0.324718	1257.131563
3959.000000	0.092565	0.090913	1562.441548
3960.000000	0.111342	0.143969	833.896873
3961.000000	0.102773	0.105875	1311.586199
3962.000000	0.107847	0.109821	1416.920415
3963.000000	0.098192	0.098258	662.840135
3964.000000	0.102882	0.104937	1481.382765
3965.000000	0.116807	0.138452	1319.470024
3966.000000	0.119283	0.149418	929.625132
3967.000000	0.101907	0.102183	1830.490261
3968.000000	0.119527	0.144137	1215.102218
3969.000000	0.753477	0.407657	1405.978372
3970.000000	0.097957	0.106625	1970.160735
3971.000000	0.115019	0.114619	1174.523661
3972.000000	0.624669	0.314290	1645.476051
3973.000000	0.098740	0.097497	1957.439589
3974.000000	0.107445	0.158982	913.068441
3975.000000	0.089519	0.108562	1838.858669
3976.000000	0.785254	0.453154	1781.640519
3977.000000	0.106521	0.138392	950.357243
3978.000000	0.091348	0.098799	1678.376523
3979.000000	0.104961	0.125381	1268.454152
3980.000000	0.125329	0.156599	1035.041824
3981.000000	0.100962	0.107071	1645.742061
3982.000000	0.109241	0.102503	1071.551384
3983.000000	0.650414	0.333656	1215.264933
3984.000000	0.106139	0.116404	1661.873099
3985.000000	0.109492	0.129709	937.240589
3986.000000	0.112137	0.111946	1647.880370
3987.000000	0.112029	0.113529	1841.554893
3988.000000	0.120952	0.134959	916.632706
3989.000000	0.100122	0.121311	2131.471030
3990.000000	0.099726	0.113084	1977.686078
3991.000000	0.105310	0.177622	1397.889026
3992.000000	0.109101	0.106371	2651.550187
3993.000000	0.123431	0.136958	2058.439831
3994.000000	0.129660	0.263953	2193.153527
3995.000000	0.097803	0.098554	3279.921919
3996.000000	0.173323	0.264714	1919.421127
3997.000000	0.119197	0.237793	2924.873416
3998.000000	0.100589	0.101735	3594.312277
3999.000000	0.124285	0.148161	1561.685406
4000.000000	0.135753	0.284228	3556.622445
4001.000000	0.114963	0.105426	3402.280613
4002.000000	0.149204	0.259615	2092.870186
4003.000000	0.113366	0.207217	3907.674959
4004.000000	0.127624	0.164416	3179.170953
4005.000000	0.139623	0.210321	2693.804240
4006.000000	0.110941	0.154132	3763.257198
4007.000000	0.123895	0.163094	2449.153713
4008.000000	0.115742	0.223805	2524.602333
4009.000000	0.109434	0.151320	3201.092372
4010.000000	0.111896	0.129599	1532.427950
4011.000000	0.099100	0.107836	2399.510730
4012.000000	0.133399	0.152175	2498.860021
4013.000000	0.130171	0.158964	1033.454591
4014.000000	0.100196	0.095418	2384.857452
4015.000000	0.114050	0.128018	1796.149059
4016.000000	0.107332	0.123737	1303.033495
4017.000000	0.105651	0.101514	2101.236737
4018.000000	0.123982	0.119404	1431.075767
4019.000000	0.116808	0.137351	1386.525848
4020.000000	0.110869	0.101522	1741.145866
4021.000000	0.624822	0.359983	984.267193
4022.000000	0.115670	0.222700	1270.987304
4023.000000	0.197534	0.181723	1489.810401
4024.000000	0.129453	0.136108	674.400699
4025.000000	0.118692	0.139117	1378.552625
4026.000000	0.104558	0.106342	1343.752235
4027.000000	0.115119	0.111448	747.358914
4028.000000	0.095059	0.110205	1495.748373
4029.000000	0.105613	0.099525	1305.898442
4030.000000	0.105054	0.115603	1100.780978
4031.000000	0.581239	0.313295	1748.537566
4032.000000	0.123371	0.119343	1135.722173
4033.000000	0.445283	0.278551	1269.339029
4034.000000	0.395845	0.236819	1528.738269
4035.000000	0.103508	0.100805	809.529620
4036.000000	0.546564	0.331996	1201.232085
4037.000000	0.113479	0.107051	1297.453678
4038.000000	0.105580	0.114517	533.023667
4039.000000	0.878713	0.414904	1137.692026
4040.000000	0.101862	0.116579	899.802974
4041.000000	0.114057	0.124769	580.206844
4042.000000	0.098174	0.101528	1009.708471
4043.000000	0.472341	0.336611	665.611485
4044.000000	0.115950	0.101992	630.739289
4045.000000	0.105782	0.103589	856.403237
4046.000000	0.119851	0.111591	462.131238
4047.000000	0.104387	0.097032	635.031580
4048.000000	0.103830	0.107704	708.201974
4049.000000	0.115876	0.123922	299.655000
4050.000000	0.121256	0.136876	633.311493
4051.000000	0.111066	0.110846	581.542301
4052.000000	0.117892	0.111974	323.971548
4053.000000	0.114784	0.119784	524.566727
4054.000000	2.537255	0.841890	434.893389
4055.000000	0.127009	0.122083	289.787963
4056.000000	0.122232	0.122223	363.222167
4057.000000	1.257991	0.525300	180.092576
4058.000000	0.131130	0.126271	197.749169
4059.000000	1.057080	0.464419	159.603952
4060.000000	0.111402	0.098470	70.872733
4061.000000	0.117861	0.116281	101.916061
4062.000000	0.119132	0.118362	93.582055
4063.000000	0.117766	0.132088	33.483860
4064.000000	0.859192	0.443158	98.860615
4065.000000	0.112141	0.108380	57.007679
4066.000000	0.125463	0.120569	37.107130
4067.000000	0.106084	0.110460	54.763072
4068.000000	0.116016	0.115556	37.618816
4069.000000	0.122071	0.125874	34.089976
4070.000000	0.637938	0.406628	44.711605
4071.000000	0.113150	0.093620	26.217666
4072.000000	0.649885	0.372692	34.085813
4073.000000	0.108029	0.122682	66.934174
4074.000000	0.104032	0.092467	30.050612
4075.000000	0.115518	0.107100	81.769169
4076.000000	0.127215	0.128098	89.953609
4077.000000	0.106137	0.102272	50.603822
4078.000000	0.125205	0.152655	100.275249
4079.000000	0.109495	0.105462	90.597154
4080.000000	0.136118	0.119810	94.472154
4081.000000	0.127295	0.123006	165.178045
4082.000000	0.145374	0.145033	133.897748
4083.000000	0.131928	0.128519	182.043768
4084.000000	0.133235	0.136656	241.604703
4085.000000	0.150253	0.133893	129.259701
4086.000000	0.435264	0.340443	229.199926
4087.000000	0.130350	0.128576	254.233266
4088.000000	0.150498	0.174693	134.484290
4089.000000	0.435725	0.305096	279.133836
4090.000000	0.155915	0.145616	241.221466
4091.000000	0.153094	0.138127	176.306665
4092.000000	0.137891	0.131337	334.890759
4093.000000	0.147793	0.145174	255.652256
4094.000000	0.204504	0.205745	267.487511
4095.000000	0.160190	0.164633	452.121130
4096.000000	0.198795	0.180765	282.026182
4097.000000	0.184557	0.201831	446.138119
4098.000000	0.161584	0.162500	617.044279
4099.000000	0.229626	0.205653	273.852479
4100.000000	0.421933	0.366768	628.578742
4101.000000	0.190862	0.188362	621.365679
4102.000000	0.235642	0.241637	374.924733
4103.000000	0.240204	0.215206	695.329936
4104.000000	0.221774	0.245556	523.050594
4105.000000	0.261762	0.282339	435.292772
4106.000000	0.256820	0.249984	631.320615
4107.000000	0.332588	0.290311	394.640808
4108.000000	0.301596	0.290145	487.693611
4109.000000	0.325531	0.311210	521.003395
4110.000000	0.508033	0.491799	308.483515
4111.000000	0.441257	0.408962	472.632099
4112.000000	0.503720	0.481507	486.622004
4113.000000	0.659462	0.712753	253.297638
4114.000000	0.479770	0.505308	514.127057
4115.000000	0.747603	0.727153	451.216022
4116.000000	0.633182	0.591180	292.120023
4117.000000	0.375671	0.389509	583.113290
4118.000000	0.551164	0.555344	426.625147
4119.000000	0.346381	0.340433	402.677125
4120.000000	0.326957	0.320941	555.590578
4121.000000	0.288211	0.288043	285.048450
4122.000000	1.243329	0.788253	386.802577
4123.000000	0.331367	0.325242	446.362021
4124.000000	0.218853	0.248891	195.775345
4125.000000	0.234504	0.228807	351.976667
4126.000000	0.228643	0.223428	391.445868
4127.000000	0.208886	0.213678	236.077725
4128.000000	0.178165	0.178942	432.608607
4129.000000	0.164331	0.161675	353.887689
4130.000000	0.161745	0.151260	273.445223
4131.000000	0.161549	0.156738	392.013814
4132.000000	1.577974	0.612986	248.284549
4133.000000	1.447877	0.589828	321.414504
4134.000000	0.136202	0.121417	364.742150
4135.000000	0.122440	0.103777	202.527978
4136.000000	0.134523	0.136028	386.699201
4137.000000	0.134599	0.123470	435.250989
4138.000000	0.120469	0.137737	201.249996
4139.000000	0.106825	0.099877	482.303689
4140.000000	0.116505	0.116981	426.120358
4141.000000	0.117384	0.122973	286.778203
4142.000000	0.108678	0.114729	547.763381
4143.000000	0.107197	0.099383	396.332120
4144.000000	0.117727	0.116599	367.275437
4145.000000	2.510598	0.682475	487.881802
4146.000000	0.103807	0.113436	255.576779
4147.000000	0.090211	0.092316	315.695549
4148.000000	0.097293	0.101827	337.719668
4149.000000	0.105222	0.094959	136.158507
4150.000000	0.103830	0.104632	270.029029
4151.000000	0.098366	0.095323	222.627313
4152.000000	0.096267	0.092565	132.612498
4153.000000	0.085358	0.081376	239.388059
4154.000000	0.090339	0.083311	201.738001
4155.000000	0.089046	0.086608	172.251646
4156.000000	0.091432	0.087329	235.714362
4157.000000	0.076489	0.082284	147.929813
4158.000000	0.082852	0.079403	178.152891
4159.000000	0.095724	0.103609	206.108591
4160.000000	0.073478	0.076776	101.365551
4161.000000	0.080341	0.079283	145.263059
4162.000000	2.790120	0.735814	151.414136
4163.000000	0.080845	0.080490	62.886705
4164.000000	0.081046	0.080261	124.161925
4165.000000	0.079651	0.076272	86.730130
4166.000000	0.080400	0.070452	46.749826
4167.000000	0.086727	0.080845	74.954923
4168.000000	0.075206	0.069036	44.813718
4169.000000	0.088594	0.081617	41.244790
4170.000000	3.641253	0.774144	84.969925
4171.000000	0.078916	0.083813	18.819089
4172.000000	0.077718	0.079651	27.692986
4173.000000	0.074082	0.071284	22.972777
4174.000000	0.074805	0.075239	8.066611
4175.000000	2.753404	0.659749	8.191262
4176.000000	0.737484	0.386622	5.676745
4177.000000	1.621627	0.525782	9.894002
4178.000000	0.074357	0.063979	10.131327
4179.000000	0.070416	0.065262	7.800852
4180.000000	0.088415	0.089414	4.586161
4181.000000	0.087936	0.086251	8.928910
4182.000000	0.071626	0.076825	3.540760
4183.000000	0.071082	0.070317	2.108828
4184.000000	0.081894	0.073333	0.648270
4185.000000	0.080181	0.079767	0.431840
4186.000000	0.079263	0.079548	3.333643
4187.000000	0.084166	0.078563	4.479018
4188.000000	0.080896	0.082304	3.981555
4189.000000	0.071425	0.070586	9.965934
4190.000000	0.076062	0.076121	9.027715
4191.000000	0.086183	0.088489	6.976999
4192.000000	0.074560	0.070753	21.040654
4193.000000	0.071689	0.068939	20.397241
4194.000000	0.079758	0.081752	24.180598
4195.000000	0.078988	0.081939	42.165656
4196.000000	0.641376	0.341652	24.661958
4197.000000	0.084807	0.087492	35.111240
4198.000000	0.085754	0.094777	33.196102
4199.000000	0.501449	0.378273	29.230305
4200.000000	0.110478	0.129046	37.678963
4201.000000	0.095210	0.088095	45.630388
4202.000000	0.093764	0.090969	32.335530
4203.000000	0.091002	0.093744	66.244110
4204.000000	0.101990	0.104050	62.048499
4205.000000	0.103858	0.095748	52.777231
4206.000000	0.110144	0.101946	76.743236
4207.000000	0.109157	0.099239	55.683277
4208.000000	0.109950	0.105262	71.760436
4209.000000	0.107059	0.116025	99.527874
4210.000000	0.115568	0.114610	62.551043
4211.000000	0.106469	0.096212	101.285044
4212.000000	0.108310	0.105565	123.640526
4213.000000	0.769948	0.435561	63.645967
4214.000000	0.775386	0.336872	129.288660
4215.000000	0.095364	0.087524	88.784457
4216.000000	0.109409	0.105116	60.002353
4217.000000	0.088349	0.088690	98.124197
4218.000000	1.116493	0.443101	67.155662
4219.000000	0.103803	0.104348	70.010087
4220.000000	0.102283	0.102212	98.832551
4221.000000	0.091260	0.093379	51.321540
4222.000000	0.099768	0.101025	69.591192
4223.000000	0.967020	0.404131	104.022576
4224.000000	0.084774	0.089525	39.065878
4225.000000	0.090703	0.089513	101.501949
4226.000000	0.093373	0.092727	106.083390
4227.000000	0.083122	0.073156	67.674274
4228.000000	0.077441	0.071540	141.884587
4229.000000	0.093804	0.094501	110.433910
4230.000000	0.075652	0.078501	88.325545
4231.000000	0.083634	0.085159	140.212599
4232.000000	1.150069	0.462305	86.525018
4233.000000	0.086478	0.098396	117.287738
4234.000000	0.072174	0.069834	141.830338
4235.000000	0.078291	0.078531	78.671392
4236.000000	1.838476	1.259632	114.497698
4237.000000	0.096573	0.103238	117.527471
4238.000000	0.073753	0.069065	48.058681
4239.000000	0.072967	0.069497	96.135856
4240.000000	0.070037	0.076272	75.979155
4241.000000	0.071352	0.082488	46.870497
4242.000000	0.079667	0.084343	79.778075
4243.000000	0.067587	0.076965	52.588081
4244.000000	0.065547	0.064542	51.680176
4245.000000	0.084839	0.077704	74.456833
4246.000000	0.857824	0.360892	38.814120
4247.000000	0.074321	0.065372	46.805491
4248.000000	0.068023	0.067292	45.009879
4249.000000	0.079606	0.080120	17.640343
4250.000000	0.073086	0.067376	37.453595
4251.000000	0.078330	0.065008	32.604237
4252.000000	0.079994	0.079531	24.670599
4253.000000	0.078246	0.078621	41.715459
4254.000000	0.088024	0.077239	27.793619
4255.000000	0.075370	0.073921	17.988836
4256.000000	0.075709	0.074663	26.796493
4257.000000	0.984565	0.370404	8.896420
4258.000000	0.084876	0.086149	14.046865
4259.000000	0.080123	0.081281	21.956345
4260.000000	0.072401	0.070949	5.395939
4261.000000	0.077912	0.069712	11.183898
4262.000000	0.078219	0.080600	7.095703
4263.000000	0.083321	0.083737	3.130682
4264.000000	0.083133	0.075384	6.018127
4265.000000	1.796508	0.487471	3.525430
4266.000000	0.077042	0.068306	0.708130
4267.000000	0.074332	0.069304	0.542024
4268.000000	0.092498	0.085466	0.292192
4269.000000	0.074797	0.076096	0.541445
4270.000000	0.080371	0.076389	0.301594
4271.000000	0.076961	0.082200	0.274131
4272.000000	0.081767	0.083746	0.283926
4273.000000	0.082269	0.082651	0.549780
4274.000000	1.743203	0.488699	6.014859
4275.000000	0.086013	0.092446	2.906861
4276.000000	0.076401	0.088341	5.160847
4277.000000	0.085648	0.076843	4.290095
4278.000000	0.088561	0.086562	14.112129
4279.000000	0.083049	0.075469	11.242550
4280.000000	0.091391	0.079901	7.497393
4281.000000	0.082037	0.087169	12.825933
4282.000000	0.075557	0.074835	10.199511
4283.000000	0.068510	0.074534	10.849612
4284.000000	0.065337	0.066420	12.810972
4285.000000	0.057465	0.057379	7.026773
4286.000000	0.071674	0.066617	7.811900
4287.000000	0.075613	0.066749	8.788782
4288.000000	0.064497	0.064670	3.293468
4289.000000	0.062872	0.063115	6.208020
4290.000000	0.053784	0.051063	6.608144
4291.000000	1.507950	0.518962	9.198996
4292.000000	3.096500	0.598856	5.524589
4293.000000	0.050995	0.055279	12.141224
4294.000000	1.795763	0.471427	10.058923
4295.000000	0.058714	0.062049	25.589840
4296.000000	3.210524	0.749478	22.451462
4297.000000	0.055649	0.052296	34.503210
4298.000000	0.053363	0.050663	40.988095
4299.000000	0.056212	0.064366	21.869767
4300.000000	0.056096	0.055822	52.821941
4301.000000	0.061010	0.059146	60.884020
4302.000000	0.057051	0.058133	41.016863
4303.000000	1.327512	0.421670	95.306195
4304.000000	0.051573	0.051137	85.471552
4305.000000	0.057229	0.060639	75.245138
4306.000000	0.067286	0.063107	139.175026
4307.000000	0.057790	0.058460	97.533736
4308.000000	0.063574	0.063750	134.100785
4309.000000	0.061432	0.066755	163.282508
4310.000000	0.067363	0.064192	93.601900
4311.000000	0.061029	0.064993	181.671866
4312.000000	0.552668	0.247835	212.252080
4313.000000	0.087999	0.083374	100.216091
4314.000000	0.067147	0.065605	224.848715
4315.000000	0.077596	0.077204	217.583124
4316.000000	0.097491	0.097701	149.669429
4317.000000	0.110136	0.114473	294.765869
4318.000000	0.097119	0.105457	181.830264
4319.000000	0.106691	0.118140	206.448027
4320.000000	0.135819	0.138759	272.508274
4321.000000	0.080561	0.084950	140.620142
4322.000000	0.089310	0.088640	231.316746
4323.000000	0.149726	0.162590	299.057880
4324.000000	0.117252	0.129613	127.406368
4325.000000	0.095538	0.100122	287.262224
4326.000000	0.127241	0.113288	296.705920
4327.000000	0.149874	0.153065	173.252219
4328.000000	0.161250	0.161536	337.837345
4329.000000	0.191268	0.190171	302.354232
4330.000000	0.223013	0.237746	249.858691
4331.000000	0.256565	0.251807	392.783345
4332.000000	0.240011	0.233529	279.172154
4333.000000	0.177292	0.168258	328.603088
4334.000000	0.144190	0.153974	410.225756
4335.000000	0.121255	0.125465	236.397551
