

# Standard measurement
# Scan parameters: power 16.000000 dBm, bandwidth 1.500000 Hz
# Frequency [MHz]	avg noise	std noise	peak value
3851.000000	113.532164	113.437392	524.818224
3853.000000	102.377270	99.458461	729.578196
3855.000000	124.785935	120.358146	876.401252
3857.000000	121.849287	125.534491	466.507835
3859.000000	137.908287	162.239906	1207.875662
3861.000000	127.995721	123.664841	443.381880
3863.000000	110.800882	93.518401	741.372441
3865.000000	117.814025	107.955022	573.441715
3867.000000	121.540835	116.499478	754.025543
3869.000000	124.419517	130.727745	450.636182
3871.000000	112.203214	104.626839	1010.892659
3873.000000	136.187702	134.771833	565.042662
3875.000000	158.141869	162.381555	1394.516881
3877.000000	120.468892	120.420006	630.979201
3879.000000	131.251595	135.280648	569.311424
3881.000000	140.221710	120.463362	369.456045
3883.000000	142.931099	144.338234	886.967679
3885.000000	120.201522	120.723959	522.143962
3887.000000	118.377421	109.107314	476.110740
3889.000000	120.206039	125.267011	539.269744
3891.000000	138.631724	144.890474	498.940475
3893.000000	121.621163	126.603759	558.285945
3895.000000	126.760921	137.000177	654.237922
3897.000000	138.230606	133.036540	821.286027
3899.000000	137.182796	125.736423	844.885221
3901.000000	135.833801	136.129420	861.887729
3903.000000	148.180300	152.576387	796.568174
3905.000000	128.510941	125.289991	571.028663
3907.000000	174.294871	161.387112	583.843938
3909.000000	128.954053	116.490811	915.748054
3911.000000	157.571126	158.595844	470.699800
3913.000000	111.681579	111.281313	556.770600
3915.000000	146.285555	152.575371	685.036643
3917.000000	128.826874	121.384493	640.694132
3919.000000	135.317306	116.323658	488.819638
3921.000000	111.527755	124.811500	552.558821
3923.000000	127.174123	125.508003	536.585764
3925.000000	118.923531	113.710651	1077.214868
3927.000000	135.189939	131.840735	413.885363
3929.000000	114.519415	109.096348	764.425002
3931.000000	108.106714	99.589246	685.049655
3933.000000	120.428044	134.803268	539.831687
3935.000000	115.609370	105.319437	588.603583
3937.000000	121.215726	133.582003	446.614246
3939.000000	117.112187	112.836691	881.240679
3941.000000	101.533638	97.930153	670.132254
3943.000000	123.971350	127.199131	520.773462
3945.000000	118.036750	131.717618	662.603191
3947.000000	116.686454	109.330837	449.558594
3949.000000	99.645322	110.898848	641.168950
3951.000000	124.799246	111.056396	1164.935382
3953.000000	133.870918	127.817383	1262.240962
3955.000000	99.616865	91.056362	955.848501
3957.000000	111.052737	106.652592	872.023128
3959.000000	102.025424	99.602305	2005.233336
3961.000000	95.335900	92.658378	1553.849103
3963.000000	109.010947	115.696907	456.925621
3965.000000	90.190770	90.009144	2004.009266
3967.000000	108.776248	96.559500	1254.367126
3969.000000	98.774483	94.159544	493.036953
3971.000000	86.870113	93.905018	468.692165
3973.000000	90.340125	92.831220	1642.168666
3975.000000	99.927591	99.628722	406.064799
3977.000000	79.135863	75.530572	846.578275
3979.000000	90.630827	95.766073	1124.463291
3981.000000	90.018535	84.589458	1383.358637
3983.000000	84.306402	84.905721	1106.918777
3985.000000	77.450890	83.565492	1074.706591
3987.000000	79.978354	80.142379	2016.543884
3989.000000	78.261844	73.674879	1378.556886
3991.000000	84.656867	85.510305	992.699037
3993.000000	75.176582	85.615293	1371.193440
3995.000000	80.391977	78.345969	1771.547759
3997.000000	72.798710	73.472427	2716.790592
3999.000000	70.477719	69.169573	1718.118448
4001.000000	77.044409	77.480078	2206.685341
4003.000000	62.060083	66.039669	687.494976
4005.000000	76.955985	79.528582	1079.584619
4007.000000	70.289334	68.309751	1310.187746
4009.000000	75.157131	73.135847	1665.110615
4011.000000	63.610782	64.018608	1668.236455
4013.000000	70.959983	74.745079	533.423766
4015.000000	69.347165	68.015978	1101.326627
4017.000000	60.033644	60.688855	1338.427929
4019.000000	53.470964	51.718047	886.946132
4021.000000	60.482795	63.499540	973.219833
4023.000000	50.826158	49.583106	1197.619066
4025.000000	58.680521	54.161116	465.396590
4027.000000	55.954197	53.991698	179.995519
4029.000000	54.754469	49.018434	822.257836
4031.000000	66.869547	66.399981	394.640080
4033.000000	47.482171	50.864962	601.512071
4035.000000	55.254470	51.601617	287.528216
4037.000000	54.073143	53.509480	609.044792
4039.000000	51.598592	51.439770	427.206064
4041.000000	53.012370	55.940771	326.227958
4043.000000	53.465799	53.035201	901.691237
4045.000000	46.644059	54.061190	606.966888
4047.000000	50.318407	50.784720	735.547540
4049.000000	54.555921	52.054705	391.417297
4051.000000	52.722219	55.317971	691.336941
4053.000000	56.321313	55.264977	429.435113
4055.000000	50.366844	53.392227	248.347507
4057.000000	51.062584	43.779478	631.891099
4059.000000	49.963599	49.922615	586.704100
4061.000000	45.781295	47.149007	615.415571
4063.000000	49.314724	48.921036	259.069594
4065.000000	48.110487	43.062305	308.817585
4067.000000	56.608132	57.720068	537.518224
4069.000000	48.453449	47.257892	304.761934
4071.000000	45.362424	46.115312	202.371932
4073.000000	47.241298	50.333732	898.978021
4075.000000	46.133130	46.931690	344.931160
4077.000000	47.194845	43.116460	362.390593
4079.000000	49.969348	44.592569	430.760746
4081.000000	38.335531	37.429643	1305.393293
4083.000000	48.415549	43.672622	421.291377
4085.000000	44.939026	41.738459	291.787692
4087.000000	45.000657	53.581291	1045.713732
4089.000000	45.224318	42.040203	590.429266
4091.000000	41.809494	36.803662	307.288496
4093.000000	47.213150	48.334832	379.768191
4095.000000	39.867421	39.329604	750.041663
4097.000000	42.385834	46.784907	1141.280733
4099.000000	50.430346	47.732801	249.600782
4101.000000	45.002869	40.273377	292.370381
4103.000000	47.890847	48.246425	373.410560
4105.000000	47.968655	45.558684	543.079408
4107.000000	47.248966	47.501977	210.517213
4109.000000	47.951617	46.082095	237.667898
4111.000000	41.461494	42.708253	314.075072
4113.000000	41.459611	44.006957	253.603521
4115.000000	44.968710	39.225532	204.238857
4117.000000	44.064316	41.737706	441.849810
4119.000000	53.137581	54.047910	294.205609
4121.000000	50.251442	51.473230	175.846030
4123.000000	46.961243	46.509302	171.968868
4125.000000	51.185731	58.273716	286.762591
4127.000000	48.428385	45.438881	237.325423
4129.000000	47.319213	43.379114	461.074165
4131.000000	43.034605	44.813252	191.308631
4133.000000	45.851295	38.479691	244.768330
4135.000000	46.071762	53.069249	161.893462
4137.000000	44.333703	43.921160	228.845557
4139.000000	47.144047	46.121070	289.794117
4141.000000	55.642208	56.695129	208.220593
4143.000000	43.437346	44.918436	223.370425
4145.000000	52.305219	51.617452	234.745311
4147.000000	41.980842	41.677003	179.194620
4149.000000	48.159139	46.190740	270.048706
4151.000000	52.028521	52.674168	248.134455
4153.000000	51.258521	48.383997	182.509793
4155.000000	40.413459	41.599112	251.289933
4157.000000	51.362469	52.412086	281.634428
4159.000000	46.963150	48.289924	193.059813
4161.000000	41.908536	44.002224	234.434775
4163.000000	48.117027	43.389810	166.678293
4165.000000	45.655028	43.866983	243.509801
4167.000000	53.248337	48.538820	240.939093
4169.000000	61.651183	59.713440	314.980801
4171.000000	56.568584	52.181560	230.275440
4173.000000	44.769075	44.215697	202.215381
4175.000000	59.700828	52.183233	263.743039
4177.000000	44.632446	46.458548	220.789708
4179.000000	49.479819	47.724655	215.836410
4181.000000	51.548105	52.132055	293.858062
4183.000000	52.578109	45.607981	218.388653
4185.000000	49.767368	51.650944	147.457547
4187.000000	45.154693	41.799912	241.847494
4189.000000	52.066702	50.567202	389.955248
4191.000000	50.953094	49.194201	270.341085
4193.000000	48.037040	45.093925	178.707058
4195.000000	51.924886	52.295007	245.812809
4197.000000	51.523172	50.906020	381.651301
4199.000000	52.428553	47.864232	215.252474
4201.000000	51.736674	59.022253	235.285588
4203.000000	52.501810	56.642586	251.428499
4205.000000	54.381633	60.671309	212.875565
4207.000000	49.967223	54.924452	451.059080
4209.000000	54.914535	53.798768	242.294713
4211.000000	51.029766	46.924148	210.553451
4213.000000	58.042842	66.647211	277.509853
4215.000000	58.660623	57.721734	238.674821
4217.000000	54.490404	55.799704	196.404156
4219.000000	63.729980	62.957893	209.201620
4221.000000	56.768030	54.880932	325.196048
4223.000000	52.655365	52.731090	245.880204
4225.000000	65.120129	65.203093	167.416095
4227.000000	54.700145	59.254766	304.039694
4229.000000	57.925390	54.568768	343.164171
4231.000000	56.479386	58.302663	198.802556
4233.000000	57.110192	57.214682	232.431679
4235.000000	56.735405	57.030946	261.642059
4237.000000	59.697818	55.646767	295.549189
4239.000000	57.040198	57.075269	310.954037
4241.000000	57.041088	65.835919	259.813691
4243.000000	54.961659	51.246161	266.622937
4245.000000	54.838441	55.194296	222.386066
4247.000000	51.940543	47.492599	489.003704
4249.000000	57.589092	52.961492	237.037287
4251.000000	56.880104	61.839541	274.628869
4253.000000	53.552845	54.890691	235.676683
4255.000000	53.234291	53.537557	230.742112
4257.000000	56.517404	56.561934	227.578332
4259.000000	54.448922	60.247903	325.848022
4261.000000	49.490531	46.795130	237.761244
4263.000000	51.711763	51.137064	214.894474
4265.000000	51.293299	55.767945	294.026101
4267.000000	52.921419	48.047313	363.236030
4269.000000	60.015195	61.788378	151.160164
4271.000000	55.838295	52.943575	210.877362
4273.000000	49.688638	48.689754	140.549734
4275.000000	60.505311	62.007582	249.513250
4277.000000	51.559571	54.414633	229.972850
4279.000000	49.792132	51.363797	317.302305
4281.000000	54.176080	55.172847	198.758519
4283.000000	54.006926	50.905577	248.694046
4285.000000	48.812690	47.517025	181.315776
4287.000000	54.513262	50.205515	390.029893
4289.000000	45.057852	44.654257	204.878552
4291.000000	48.964434	52.773578	178.975033
4293.000000	46.725042	44.782657	147.827138
4295.000000	44.432329	42.162658	276.738688
4297.000000	36.140800	38.412356	217.344081
4299.000000	43.567672	40.888140	173.928861
4301.000000	36.890170	38.077637	152.525169
4303.000000	41.607084	43.135819	168.443671
4305.000000	39.677417	40.348232	152.153284
4307.000000	36.537720	38.556508	148.825630
4309.000000	39.970723	36.836473	300.933778
4311.000000	37.123655	34.930677	205.011848
4313.000000	45.817421	41.499029	205.845689
4315.000000	38.376570	36.021118	127.217287
4317.000000	40.765578	36.765653	170.196112
4319.000000	45.584058	42.633403	129.629077
4321.000000	44.981906	42.122133	142.150625
4323.000000	41.495814	40.961548	166.816755
4325.000000	43.208451	41.940605	119.476988
4327.000000	40.075591	35.773485	197.814742
4329.000000	42.795868	46.397123	361.263749
4331.000000	40.476455	42.725583	187.435155
4333.000000	37.840066	36.479113	153.457072
4335.000000	37.740095	36.967454	186.866172
4337.000000	36.911305	35.213221	163.192270
4339.000000	36.828644	35.544300	123.303948
4341.000000	40.158673	38.465837	250.897793
4343.000000	33.761277	33.963015	197.347074
4345.000000	35.071515	35.166040	235.050810
4347.000000	34.106647	36.732048	167.690506
4349.000000	30.947084	30.102723	150.380460
4351.000000	33.101102	28.623880	135.188478
4353.000000	36.772084	36.381477	103.298118
4355.000000	29.442310	30.042519	154.744703
4357.000000	32.301448	38.493248	170.955869
4359.000000	31.610489	32.105314	226.401888
4361.000000	33.039073	36.220874	225.238643
4363.000000	27.088186	26.577848	148.948279
4365.000000	30.526546	29.920270	81.597630
4367.000000	28.452947	28.659671	181.233173
4369.000000	26.579436	26.994345	88.218055
4371.000000	30.293803	29.204466	247.057723
4373.000000	26.520053	26.239101	114.007720
4375.000000	27.812287	25.075713	185.212863
4377.000000	24.580485	29.107029	106.033666
4379.000000	26.618380	25.376474	123.547713
4381.000000	26.933387	28.747798	142.237938
4383.000000	25.236433	27.657287	163.067291
4385.000000	28.017055	29.120096	117.480052
4387.000000	26.235846	24.140813	73.467366
4389.000000	28.249493	27.061795	103.569602
4391.000000	22.570429	21.109076	143.626595
4393.000000	26.266694	27.142485	146.201465
4395.000000	22.417897	23.573896	104.902932
4397.000000	20.848284	19.729991	111.992098
4399.000000	23.296788	20.756772	120.413006
4401.000000	22.087911	20.305445	92.198438
4403.000000	20.554454	19.035292	128.650926
4405.000000	20.501238	19.660997	82.164718
4407.000000	18.028216	17.236095	77.206430
4409.000000	20.069609	18.698837	87.680172
4411.000000	19.185797	19.466775	151.351701
4413.000000	19.463713	18.413159	90.703385
4415.000000	17.536537	17.004280	111.129625
4417.000000	20.912228	18.952064	139.910576
4419.000000	20.119125	18.467545	103.365240
4421.000000	19.190622	18.759949	90.703754
4423.000000	20.537023	22.342668	79.978636
4425.000000	19.803816	20.739183	86.639929
4427.000000	19.377994	19.476802	83.325264
4429.000000	19.221873	17.976301	112.611361
4431.000000	20.396028	18.788935	80.782002
4433.000000	20.702496	18.990111	100.394574
4435.000000	22.303921	20.358915	78.152602
4437.000000	22.468667	24.736233	107.691494
4439.000000	23.065175	24.021704	87.213648
4441.000000	15.215437	14.880478	64.595056
4443.000000	17.913465	17.232885	98.533733
4445.000000	16.868055	17.298705	86.566073
4447.000000	20.173497	20.808205	82.054559
4449.000000	18.736984	16.511359	89.060653
4451.000000	19.951226	20.168516	115.403886
4453.000000	20.611923	18.336607	98.885991
4455.000000	18.374158	18.282658	49.317316
4457.000000	20.576789	19.474311	70.620677
4459.000000	20.257191	19.341851	118.470898
4461.000000	20.007754	19.729515	84.196125
4463.000000	20.845923	25.269094	74.831875
4465.000000	18.457702	19.888947	60.726918
4467.000000	19.878115	20.870329	82.396425
4469.000000	18.727292	18.142772	76.889449
4471.000000	19.391090	18.321950	80.159908
4473.000000	16.688405	16.802152	71.891580
4475.000000	18.630685	16.409566	76.982072
4477.000000	17.157293	16.928968	127.516025
4479.000000	17.138470	17.178898	110.016887
4481.000000	21.322607	20.308445	71.556382
4483.000000	19.615971	18.467017	89.445340
4485.000000	19.988869	19.653253	57.957118
4487.000000	19.427163	21.027706	119.347576
4489.000000	20.639732	19.778873	83.186601
4491.000000	20.816102	19.396702	126.875685
4493.000000	20.569225	19.245135	87.151425
4495.000000	20.619448	21.060955	80.316184
4497.000000	20.022611	19.624132	87.951827
4499.000000	19.340908	20.307419	90.987803
4501.000000	21.363528	21.801451	129.612153
4503.000000	20.851450	19.505713	96.584004
4505.000000	20.012380	18.180926	126.598474
4507.000000	19.956578	20.209015	84.458136
4509.000000	22.073136	20.430238	105.580668
4511.000000	21.686839	23.686781	226.443344
4513.000000	21.252773	20.678905	131.524503
4515.000000	20.221576	19.899528	201.879957
4517.000000	22.344769	21.359740	146.801953
4519.000000	20.410357	22.221670	182.203750
4521.000000	20.532706	17.745642	150.362238
4523.000000	22.111827	24.070336	191.654103
4525.000000	23.891727	22.184206	248.292542
4527.000000	25.390190	27.247178	86.952573
4529.000000	24.000912	25.737543	387.643287
4531.000000	23.849512	24.293384	293.937538
4533.000000	22.793976	22.713559	172.211134
4535.000000	26.332313	24.552833	202.421383
4537.000000	27.430158	24.979306	241.189811
4539.000000	23.985475	24.997781	263.812471
4541.000000	27.018438	28.994832	251.434511
4543.000000	26.556380	27.158341	138.260280
4545.000000	22.838986	22.874976	356.774248
4547.000000	23.264829	23.033321	264.130472
4549.000000	28.655817	23.843470	129.522642
4551.000000	23.849174	23.614927	439.161664
4553.000000	23.680030	22.260477	597.073691
4555.000000	24.013152	25.400848	262.282141
4557.000000	25.341254	31.394363	147.102293
4559.000000	27.769204	26.847627	300.806708
4561.000000	27.586224	26.846685	256.346978
4563.000000	29.194313	27.843038	169.413288
4565.000000	29.724397	25.540354	213.142159
4567.000000	27.595042	26.666180	237.740195
4569.000000	29.915796	28.453738	204.612219
4571.000000	33.286980	33.001539	417.844060
4573.000000	32.022887	39.889436	281.129420
4575.000000	34.159719	30.291754	229.955019
4577.000000	30.951956	29.458933	238.657092
4579.000000	32.860146	34.452589	164.396957
4581.000000	32.617392	29.956544	135.534160
4583.000000	31.119329	31.837336	162.405957
4585.000000	33.248791	30.783774	171.307409
4587.000000	34.534220	30.483790	341.242520
4589.000000	36.616925	37.061721	257.945077
4591.000000	36.189863	37.034770	156.845615
4593.000000	31.621731	31.283753	139.724761
4595.000000	28.915976	32.733615	173.664628
4597.000000	36.761424	35.735562	102.122875
4599.000000	34.285383	34.095300	224.867383
4601.000000	36.184980	34.961864	102.917664
4603.000000	33.394109	39.093222	156.166475
4605.000000	37.115668	37.824555	114.872226
4607.000000	34.907826	33.948474	116.155595
4609.000000	32.288017	30.783346	142.043871
4611.000000	35.289220	33.479781	156.288096
4613.000000	33.747764	34.503230	149.392199
4615.000000	32.811577	32.352411	288.114551
4617.000000	35.296371	34.950786	205.347856
4619.000000	35.779528	37.968639	306.864830
4621.000000	34.760322	34.764905	85.024422
4623.000000	30.006789	29.007982	215.214783
4625.000000	38.850033	35.658508	189.771837
4627.000000	36.420595	34.397625	120.664807
4629.000000	31.147523	25.497969	107.878855
4631.000000	36.598037	34.260776	245.250815
4633.000000	37.083390	34.181728	107.818686
4635.000000	41.815970	36.201579	288.910754
4637.000000	36.703320	35.811623	329.762843
4639.000000	42.037567	40.493181	382.646807
4641.000000	37.970722	40.391078	269.858446
4643.000000	40.589294	37.692496	198.435390
4645.000000	40.534150	39.613538	238.012271
4647.000000	39.121478	36.190377	304.705254
4649.000000	40.314605	35.133899	251.670804
4651.000000	42.697818	41.869736	519.604575
4653.000000	34.492154	34.000069	201.442177
4655.000000	38.848779	39.619921	205.722136
4657.000000	38.482160	37.307229	209.941582
4659.000000	38.689781	38.632914	157.221951
4661.000000	41.414069	39.925095	177.335667
4663.000000	42.527965	39.915171	264.289523
4665.000000	35.571013	37.951445	282.920816
4667.000000	44.891568	49.804408	143.950092
4669.000000	36.992516	41.401096	240.684849
4671.000000	42.062206	42.953846	259.576305
4673.000000	41.300653	37.376904	849.910387
4675.000000	40.535282	41.174475	256.124838
4677.000000	38.601837	33.422698	302.914331
4679.000000	34.749291	30.590120	232.424327
4681.000000	35.635490	33.298993	570.143503
4683.000000	41.103386	43.774715	425.678970
4685.000000	41.099404	37.037641	359.583125
4687.000000	38.378753	36.352467	173.998952
4689.000000	34.619641	35.051025	392.870299
4691.000000	47.364726	45.763617	283.890515
4693.000000	37.189407	36.832630	212.654484
4695.000000	38.205445	37.583291	249.334410
4697.000000	32.370104	32.967218	198.188405
4699.000000	38.980218	40.184901	204.373024
4701.000000	39.637211	38.891076	171.510028
4703.000000	42.553548	40.660663	178.726316
4705.000000	39.772690	42.623217	192.493366
4707.000000	35.596748	31.691548	175.427619
4709.000000	36.232296	30.959019	323.393662
4711.000000	38.495030	41.785348	199.012234
4713.000000	42.340298	40.301788	127.341339
4715.000000	41.238595	44.823008	135.153470
4717.000000	35.943532	37.483108	136.278771
4719.000000	35.521071	35.926180	177.872651
4721.000000	33.902464	32.246860	132.090745
4723.000000	30.503216	28.399459	199.122914
4725.000000	42.116177	43.354388	193.428265
4727.000000	39.434146	40.154373	220.266754
4729.000000	35.276216	34.919722	172.666593
4731.000000	33.413007	30.114741	175.479164
4733.000000	37.098631	40.651471	150.892660
4735.000000	30.374585	29.642373	219.498827
4737.000000	33.044087	30.232957	176.694008
4739.000000	38.147815	36.542138	147.732508
4741.000000	29.034648	28.440897	125.352713
4743.000000	34.983800	36.667826	163.663037
4745.000000	33.659934	33.371899	125.530259
4747.000000	33.946654	31.542956	184.539124
4749.000000	36.955855	39.653568	142.879740
4751.000000	29.912343	30.188300	174.249288
4753.000000	33.432731	30.738043	240.131444
4755.000000	29.005757	27.412101	151.527298
4757.000000	34.985425	34.193253	165.983082
4759.000000	32.637692	31.616706	386.991981
4761.000000	28.626023	28.758624	168.664572
4763.000000	30.382177	28.319194	336.212327
4765.000000	29.107451	25.878581	284.839247
4767.000000	27.448921	28.170178	427.891943
