

# Power 3dB lower
# Scan parameters: power 16.000000 dBm, bandwidth 1.500000 Hz
# Frequency [MHz]	avg noise	std noise	peak value
3851.000000	14.457655	14.372749	1555.928715
3853.000000	17.885915	16.316605	1638.442359
3855.000000	16.518351	16.686800	1847.308825
3857.000000	16.526172	15.857191	1050.983222
3859.000000	15.826299	16.579719	2150.569718
3861.000000	15.455864	15.628540	2547.135705
3863.000000	19.404555	20.078665	1400.191325
3865.000000	17.601244	19.055157	2358.602077
3867.000000	18.250052	18.055626	2808.772498
3869.000000	20.293016	18.929054	1882.909491
3871.000000	19.870858	18.612625	1278.718087
3873.000000	19.016298	19.991907	2133.923263
3875.000000	60.742237	54.384765	1914.215637
3877.000000	24.778725	22.266195	1640.643401
3879.000000	22.746343	22.614129	2325.890843
3881.000000	22.172688	20.968852	2997.404407
3883.000000	22.627829	24.351923	2585.673395
3885.000000	20.251500	19.213178	1486.725862
3887.000000	28.248080	24.860172	3980.011538
3889.000000	22.213860	22.074453	3834.305656
3891.000000	26.421622	26.214881	2871.062351
3893.000000	24.654229	29.299542	3051.578831
3895.000000	23.697243	23.418231	4159.211812
3897.000000	28.191753	28.916391	3907.989782
3899.000000	26.144775	26.923543	1719.891500
3901.000000	28.107306	27.219786	3415.095252
3903.000000	29.038663	27.126687	2918.711968
3905.000000	28.690636	29.350074	2005.797805
3907.000000	31.166924	31.767905	2459.758558
3909.000000	32.316107	30.372783	3222.404829
3911.000000	31.642341	29.303999	2503.736468
3913.000000	30.375802	29.051158	1522.488829
3915.000000	30.498692	29.289049	2878.921460
3917.000000	31.754619	29.251749	2943.459490
3919.000000	31.744212	34.439961	2076.511079
3921.000000	26.838567	28.723005	1643.508950
3923.000000	28.089098	29.594231	1959.971797
3925.000000	32.231758	31.017534	1718.762120
3927.000000	27.018250	28.235198	1007.895255
3929.000000	35.456228	38.208068	1731.217254
3931.000000	30.692141	27.423973	1770.127149
3933.000000	30.800558	33.225355	1060.393970
3935.000000	34.344538	35.414531	480.399341
3937.000000	34.203036	33.049004	683.430197
3939.000000	26.998233	24.536651	216.384099
3941.000000	33.751529	38.575643	338.335223
3943.000000	27.267465	27.504327	961.187197
3945.000000	26.449561	24.147498	1078.311886
3947.000000	28.449668	30.553775	1102.904523
3949.000000	27.405131	26.931427	919.871733
3951.000000	28.700393	28.129797	2370.577951
3953.000000	23.604437	22.195497	2764.933704
3955.000000	22.637572	21.974754	2083.953528
3957.000000	22.807769	21.557557	2519.724480
3959.000000	25.623391	24.808021	2702.953782
3961.000000	22.525565	20.429872	2720.724437
3963.000000	23.291173	20.718582	1743.389901
3965.000000	23.589338	20.143054	2680.144122
3967.000000	20.941690	22.789391	3607.529166
3969.000000	21.512989	22.096587	3460.241725
3971.000000	18.178261	18.050562	2028.599493
3973.000000	17.770776	19.385409	2738.608077
3975.000000	16.245659	16.819758	3572.629146
3977.000000	19.714409	19.758648	1863.049369
3979.000000	17.773145	16.647853	3037.479180
3981.000000	16.918995	17.146560	3206.067971
3983.000000	17.422208	18.013238	2456.724733
3985.000000	20.159769	20.372033	1635.089517
3987.000000	17.302034	18.279458	4454.868641
3989.000000	20.107814	19.133073	4219.629019
3991.000000	18.746785	17.430199	3613.201295
3993.000000	23.192736	23.236032	5104.769717
3995.000000	20.714119	20.704757	7808.334637
3997.000000	23.026935	19.819245	8156.334341
3999.000000	19.652416	23.085195	4014.378183
4001.000000	21.895154	23.311085	10628.527953
4003.000000	22.346965	21.409299	9683.748394
4005.000000	20.112788	21.825866	6445.946560
4007.000000	23.186105	21.503768	6553.800795
4009.000000	20.747277	21.697572	8472.536733
4011.000000	22.982853	26.281087	7219.877337
4013.000000	24.800681	22.743229	2932.686433
4015.000000	23.428377	21.413298	5889.489744
4017.000000	21.181746	18.425693	7088.281787
4019.000000	25.620081	24.705057	4654.805444
4021.000000	22.550963	22.616771	3425.775080
4023.000000	28.880065	26.465899	4577.751996
4025.000000	26.629553	26.910263	4209.401573
4027.000000	25.956841	24.139168	3619.465296
4029.000000	29.521693	27.865585	4920.777442
4031.000000	28.350644	29.909059	7225.960612
4033.000000	26.640070	25.788704	4440.804807
4035.000000	29.671913	29.866263	3112.603605
4037.000000	31.326327	29.575415	3926.534256
4039.000000	35.242009	38.600079	3898.464654
4041.000000	36.049376	40.024080	1993.194362
4043.000000	38.481773	35.137825	2110.628676
4045.000000	39.218692	41.949257	3317.342303
4047.000000	35.525116	32.535520	3045.490960
4049.000000	43.427960	44.034079	1885.027653
4051.000000	40.718087	41.891458	2913.917334
4053.000000	38.134746	40.051378	2547.058209
4055.000000	43.809333	41.696308	1334.726582
4057.000000	42.359754	37.477767	821.125249
4059.000000	44.532916	48.510538	1697.287591
4061.000000	45.110554	47.859651	1540.336734
4063.000000	47.818718	39.052867	611.684861
4065.000000	38.736689	39.214846	1528.797175
4067.000000	38.808095	40.457476	1559.423005
4069.000000	49.207775	47.978695	866.142237
4071.000000	41.216331	39.107640	532.306861
4073.000000	45.058305	42.650611	470.681104
4075.000000	42.859313	39.943477	830.670370
4077.000000	41.232875	42.016316	479.507959
4079.000000	41.441540	41.323273	642.450904
4081.000000	36.681874	34.036299	1665.024554
4083.000000	38.846199	36.074098	1009.091371
4085.000000	38.060058	42.559265	1230.072918
4087.000000	35.576684	32.668386	1325.777155
4089.000000	35.393350	32.494972	1238.841085
4091.000000	34.595126	35.591476	865.017657
4093.000000	31.010038	29.929908	1674.489369
4095.000000	32.725785	33.249536	2335.415593
4097.000000	28.901746	29.076512	1754.372820
4099.000000	30.736865	30.583452	1447.154672
4101.000000	27.939666	26.605242	2822.932606
4103.000000	30.002229	30.235525	3580.801735
4105.000000	24.089500	23.768365	2452.253249
4107.000000	30.218906	30.342500	1807.634202
4109.000000	26.124138	27.823746	2797.154949
4111.000000	24.592225	25.912604	2354.581424
4113.000000	23.550404	22.617819	1179.721911
4115.000000	24.611931	23.861169	1851.162390
4117.000000	21.245049	22.103888	2461.912078
4119.000000	19.408653	17.623575	1724.854079
4121.000000	21.212424	21.160294	1097.707987
4123.000000	18.583772	18.938582	1448.959839
4125.000000	16.094761	15.326605	1338.059328
4127.000000	19.016677	20.388060	514.702630
4129.000000	15.922391	17.302407	1136.627378
4131.000000	16.921623	17.035463	1260.898653
4133.000000	15.977417	15.323266	1137.527304
4135.000000	15.653185	15.344268	612.366395
4137.000000	16.187780	14.615162	1082.136954
4139.000000	13.975092	13.374709	1332.721991
4141.000000	12.700836	11.950431	764.201100
4143.000000	12.197008	13.316056	878.965908
4145.000000	12.614680	13.524126	1076.599210
4147.000000	11.477614	9.997588	744.929238
4149.000000	11.121014	11.059580	292.713698
4151.000000	10.561379	10.878655	523.973420
4153.000000	9.674268	9.373480	753.312799
4155.000000	10.740290	10.021369	354.773626
4157.000000	12.397851	12.119038	351.699704
4159.000000	10.824047	11.528444	284.085307
4161.000000	9.477080	8.855140	274.874914
4163.000000	9.523276	9.993787	159.674268
4165.000000	9.960591	10.137053	313.056628
4167.000000	9.528781	8.551457	130.626742
4169.000000	8.948461	8.314595	134.537041
4171.000000	9.391273	8.141822	61.570763
4173.000000	9.631182	9.906193	111.975617
4175.000000	9.688849	11.423658	82.879297
4177.000000	10.273988	10.008071	47.092650
4179.000000	10.563024	10.415913	86.623585
4181.000000	11.442053	12.942716	93.747512
4183.000000	10.973592	10.659321	49.878210
4185.000000	14.157915	14.367058	51.089142
4187.000000	14.024663	15.510378	53.430853
4189.000000	13.254874	13.891946	86.780946
4191.000000	19.597376	18.671525	103.745903
4193.000000	17.852795	18.092312	143.805946
4195.000000	27.209943	28.306174	241.597607
4197.000000	34.882664	30.674700	194.897714
4199.000000	32.600265	34.278187	166.084841
4201.000000	16.212912	18.015241	267.228248
4203.000000	16.070453	16.389532	113.179000
4205.000000	16.247538	15.942039	54.782058
4207.000000	16.508426	14.260929	111.143542
4209.000000	16.782002	16.688014	125.877395
4211.000000	19.607656	17.070650	113.683376
4213.000000	19.043510	19.400340	130.260904
4215.000000	24.369967	23.195303	331.069187
4217.000000	28.081689	29.113020	107.285524
4219.000000	30.620569	33.404358	132.826706
4221.000000	30.631177	30.959154	173.865347
4223.000000	40.488923	38.437483	355.538118
4225.000000	24.192912	25.369064	313.326008
4227.000000	27.992081	29.991461	130.914392
4229.000000	32.540708	32.766604	328.053387
4231.000000	32.164224	32.808472	197.631702
4233.000000	26.904141	28.156032	237.166295
4235.000000	24.408725	23.734157	128.241424
4237.000000	20.358191	20.525453	429.163947
4239.000000	18.509643	18.503380	134.189012
4241.000000	14.694286	14.325758	244.792941
4243.000000	14.762405	15.129045	234.178161
4245.000000	17.832324	18.062613	185.002661
4247.000000	16.249750	14.590582	152.690543
4249.000000	17.954256	18.394541	78.456576
4251.000000	12.491274	12.337534	199.331834
4253.000000	13.530202	12.755780	210.636349
4255.000000	13.596869	12.861939	279.042504
4257.000000	15.250807	14.663630	157.628659
4259.000000	15.316788	16.312181	215.295390
4261.000000	12.466619	12.360266	155.972481
4263.000000	12.035301	11.667355	107.158041
4265.000000	13.474639	14.462605	156.384298
4267.000000	11.633669	11.093741	211.007992
4269.000000	11.735808	11.479269	95.585189
4271.000000	13.117605	13.036273	107.031804
4273.000000	13.392525	13.276397	230.873867
4275.000000	13.194439	13.586317	327.634974
4277.000000	11.682419	10.413810	192.040406
4279.000000	11.094332	10.990796	121.058219
4281.000000	11.812804	13.697538	128.090835
4283.000000	11.118311	12.120437	166.035699
4285.000000	11.059556	11.379684	146.942635
4287.000000	11.127066	9.730187	223.300002
4289.000000	11.444265	10.506839	35.064471
4291.000000	9.674891	9.301065	87.246448
4293.000000	10.599951	9.942274	51.626576
4295.000000	9.489529	9.022470	268.871013
4297.000000	9.267488	9.831483	191.357196
4299.000000	8.569618	8.052511	132.387343
4301.000000	9.320713	9.969103	245.680872
4303.000000	9.092530	9.620645	258.510019
4305.000000	8.945087	9.031277	259.757800
4307.000000	9.754840	9.112894	317.362402
4309.000000	9.111448	9.559088	406.173831
4311.000000	9.674448	9.475758	366.468153
4313.000000	9.706308	9.146089	301.200282
4315.000000	10.696119	9.975525	533.095354
4317.000000	9.594648	8.946125	492.777918
4319.000000	12.340539	11.252045	516.158730
4321.000000	11.254812	11.552746	280.735037
4323.000000	11.550167	11.934674	744.598137
4325.000000	12.341517	11.946417	807.728547
4327.000000	11.860906	14.076755	361.758079
4329.000000	12.788044	12.660774	572.082325
4331.000000	11.288155	10.804781	1126.637472
4333.000000	11.600595	12.646047	900.424374
4335.000000	10.542861	9.923812	637.918976
4337.000000	11.702382	10.277012	1168.979493
4339.000000	12.107053	12.064627	1095.209021
4341.000000	12.713970	13.294346	649.177597
4343.000000	13.033565	13.372743	801.755900
4345.000000	11.205962	11.782315	852.040829
4347.000000	12.246569	11.215792	798.364659
4349.000000	12.152164	11.501505	313.236002
4351.000000	11.533732	9.754437	1067.604418
4353.000000	12.809583	12.265459	755.450196
4355.000000	12.758784	13.916176	475.007907
4357.000000	9.847324	8.767406	522.203454
4359.000000	11.027274	11.624177	622.346065
4361.000000	10.231366	10.866305	599.170590
4363.000000	10.936957	9.602432	403.362850
4365.000000	11.713772	11.057426	421.362455
4367.000000	11.456535	11.089132	578.085925
4369.000000	10.369141	10.298538	364.193137
4371.000000	9.651119	8.665883	275.896473
4373.000000	10.277978	10.313192	561.897332
4375.000000	9.395907	9.255610	325.785497
4377.000000	10.570710	11.869335	191.258233
4379.000000	8.559288	9.441759	279.483978
4381.000000	9.192132	9.658511	294.334704
4383.000000	9.208551	8.519054	115.296428
4385.000000	7.683780	7.313049	211.610486
4387.000000	9.086582	9.578277	331.899383
4389.000000	9.056803	9.050652	399.900699
4391.000000	9.071885	8.183411	126.096754
4393.000000	11.111713	10.520053	250.083409
4395.000000	8.462678	9.412331	397.962258
4397.000000	9.311970	8.678185	391.429291
4399.000000	9.360738	9.095990	278.200941
4401.000000	9.911956	9.870154	470.042865
4403.000000	10.741444	12.407229	471.372122
4405.000000	11.323778	10.651625	239.821879
4407.000000	9.742915	9.598852	541.807344
4409.000000	11.641214	11.991966	568.364109
4411.000000	10.727542	9.478013	524.070853
4413.000000	9.883884	10.044358	203.333823
4415.000000	10.303418	11.244980	467.947962
4417.000000	10.059310	9.509777	510.157912
4419.000000	10.702805	9.984369	309.747273
4421.000000	11.442970	10.197127	237.897509
4423.000000	11.142549	11.515603	517.394747
4425.000000	11.519101	11.520933	370.404856
4427.000000	12.901461	10.991342	191.323780
4429.000000	11.547896	11.743362	352.025375
4431.000000	12.225431	12.978940	363.719437
4433.000000	13.358290	12.730852	234.822906
4435.000000	14.882625	13.846493	302.634344
4437.000000	12.987012	12.424257	299.818990
4439.000000	14.527619	14.582939	344.452653
4441.000000	14.281904	15.455822	308.339431
4443.000000	14.878461	13.687588	236.267314
4445.000000	14.275485	14.256035	404.360280
4447.000000	15.147462	15.054499	364.612383
4449.000000	16.676573	14.192551	273.281710
4451.000000	14.664444	13.956744	381.182009
4453.000000	15.273711	14.420329	484.319733
4455.000000	14.672663	14.669414	227.999740
4457.000000	17.173134	17.877708	196.995617
4459.000000	15.238441	16.161688	398.869221
4461.000000	15.119828	14.347777	313.732407
4463.000000	15.672105	16.070376	202.650986
4465.000000	14.898983	15.201256	387.921491
4467.000000	13.685962	13.831693	478.089478
4469.000000	15.517013	15.236597	236.607493
4471.000000	15.433752	14.018265	196.192473
4473.000000	15.497163	16.731005	405.964752
4475.000000	14.151901	13.221306	255.607705
4477.000000	13.384504	13.574021	144.970962
4479.000000	13.294566	12.545899	327.953871
4481.000000	13.084744	11.650041	253.452614
4483.000000	12.241161	11.519636	127.661424
4485.000000	13.192135	13.533812	101.199797
4487.000000	11.486968	11.336744	469.592463
4489.000000	12.088541	11.221715	401.723061
4491.000000	11.449107	10.718704	146.857002
4493.000000	10.522340	9.913455	183.793198
4495.000000	10.425884	9.558814	129.062293
4497.000000	9.407446	9.851216	115.298681
4499.000000	10.102514	11.551593	89.603737
4501.000000	8.647102	7.960278	52.887665
4503.000000	8.655036	8.406807	120.039585
4505.000000	9.653410	9.887600	113.806428
4507.000000	9.023130	8.352093	126.671119
4509.000000	7.477787	6.806798	241.317566
4511.000000	7.688160	6.773643	200.939203
4513.000000	7.390371	7.878552	135.227342
4515.000000	7.749117	6.997740	270.455424
4517.000000	7.042976	7.033259	269.415285
4519.000000	7.011012	7.031491	287.417596
4521.000000	7.351849	7.234818	260.012331
4523.000000	6.418999	6.099098	226.796411
4525.000000	6.449509	6.464892	439.876897
4527.000000	6.969316	6.801871	242.564863
4529.000000	6.175228	6.297895	287.928747
4531.000000	6.031992	6.263851	487.449395
4533.000000	4.983306	5.161234	267.402350
4535.000000	5.055989	4.981826	257.174564
4537.000000	5.315570	4.865137	254.183509
4539.000000	5.303257	4.617125	275.837508
4541.000000	5.189744	5.116422	86.663703
4543.000000	4.634115	4.640226	34.583782
4545.000000	4.713945	4.467566	89.604427
4547.000000	4.636063	4.830880	72.697520
4549.000000	4.545347	4.161912	76.110448
4551.000000	4.943577	4.613538	131.579250
4553.000000	4.756938	5.309621	123.095045
4555.000000	4.341547	4.097787	68.472487
4557.000000	4.433895	4.241045	54.629321
4559.000000	5.102350	5.078690	42.233075
4561.000000	4.428072	4.835986	58.668835
4563.000000	4.642380	4.264097	18.231538
4565.000000	5.478536	5.112015	19.430862
4567.000000	4.581199	4.261187	37.914017
4569.000000	3.943703	3.518898	35.357265
4571.000000	5.073651	4.847653	46.600748
4573.000000	4.638249	4.313463	101.851752
4575.000000	4.307028	4.271210	59.606349
4577.000000	4.960472	4.453951	23.549004
4579.000000	4.722180	5.225673	25.122930
4581.000000	5.348665	5.328828	27.506868
4583.000000	5.496374	4.871451	33.384637
4585.000000	4.959402	4.693251	20.553239
4587.000000	5.048517	4.756099	64.333459
4589.000000	5.351319	5.181184	60.002135
4591.000000	5.498559	5.191814	66.039363
4593.000000	5.468455	5.077267	64.250347
4595.000000	5.585364	5.890545	112.674443
4597.000000	5.813235	6.411655	97.575231
4599.000000	4.681728	5.419725	151.332115
4601.000000	5.869674	6.248375	45.862726
4603.000000	6.002340	5.517781	130.276174
4605.000000	5.327386	5.797183	108.322436
4607.000000	5.646843	5.550879	79.468649
4609.000000	5.586206	5.098068	249.592140
4611.000000	6.770892	7.261033	136.901486
4613.000000	5.832182	5.670743	99.790158
4615.000000	5.741711	5.638548	81.527387
4617.000000	5.676712	4.904116	123.246435
4619.000000	6.231388	5.779284	86.202987
4621.000000	6.640285	7.085113	64.002719
4623.000000	6.580541	6.687224	284.722892
4625.000000	6.219906	6.552806	142.860321
4627.000000	7.034009	7.664832	179.557478
4629.000000	5.722850	5.485580	343.614973
4631.000000	5.844019	5.480272	466.401659
4633.000000	6.457273	6.720163	294.601259
4635.000000	6.782889	6.535213	202.388602
4637.000000	6.005312	5.537332	218.434222
4639.000000	6.419663	6.760728	194.077967
4641.000000	7.193922	7.636743	60.720538
4643.000000	6.741103	6.317338	105.307963
4645.000000	6.106069	5.384698	115.792187
4647.000000	6.903558	6.746973	117.766559
4649.000000	7.822012	8.183942	46.788054
4651.000000	6.789258	6.593582	56.334050
4653.000000	7.377142	6.493992	67.683205
4655.000000	7.016549	7.045789	72.620015
4657.000000	7.557726	7.075206	50.290866
4659.000000	8.618280	7.991159	59.639718
4661.000000	7.545211	7.447732	36.823816
4663.000000	8.409981	8.451626	99.684146
4665.000000	8.187973	8.093381	85.118864
4667.000000	8.124525	8.074455	78.284923
4669.000000	8.513176	8.072458	135.843254
4671.000000	8.967799	7.894011	69.823003
4673.000000	9.267463	8.622059	121.913111
4675.000000	9.460507	9.366973	135.931879
4677.000000	8.953726	9.366342	172.286307
4679.000000	9.376059	9.587260	184.525499
4681.000000	9.059969	9.119801	262.799794
4683.000000	9.179634	9.265043	176.008332
4685.000000	9.432853	8.725765	164.695559
4687.000000	9.411440	9.189331	161.615270
4689.000000	9.465182	9.295110	293.056528
4691.000000	9.890367	9.222181	50.374823
4693.000000	10.163445	10.313873	67.949377
4695.000000	9.033393	9.481608	145.575481
4697.000000	8.917903	8.887391	68.192487
4699.000000	8.540132	8.497116	113.991490
4701.000000	9.988434	9.887249	55.976357
4703.000000	10.110509	10.039700	179.651831
4705.000000	9.922252	10.489085	134.553770
4707.000000	9.562214	9.128117	117.651270
4709.000000	8.399658	8.441924	125.713960
4711.000000	8.705257	8.411011	218.755610
4713.000000	8.907711	8.474192	156.610411
4715.000000	9.886827	10.312578	71.996925
4717.000000	8.103203	8.275103	219.866257
4719.000000	8.660950	8.519982	198.534279
4721.000000	8.866966	8.597121	123.129238
4723.000000	8.498877	8.066776	125.213718
4725.000000	8.157914	7.980899	94.280779
4727.000000	8.447712	8.330327	56.229445
4729.000000	9.107662	8.988537	72.089902
4731.000000	8.742154	8.476875	56.833529
4733.000000	9.728892	9.664838	61.371285
4735.000000	8.040854	8.144068	28.731006
4737.000000	7.456631	7.457388	49.215945
4739.000000	8.860283	9.048668	39.831064
4741.000000	8.446406	9.235047	29.506266
4743.000000	8.271567	8.785106	46.872049
4745.000000	9.222374	8.844654	114.158638
4747.000000	8.583384	8.233465	123.702015
4749.000000	8.574792	8.723598	172.811679
4751.000000	9.054689	10.350077	413.640248
4753.000000	9.297916	8.885555	295.134903
4755.000000	8.389503	7.676986	337.630038
4757.000000	8.605173	9.759542	350.307586
4759.000000	9.377073	9.652080	448.537947
4761.000000	9.238397	9.278135	536.263700
4763.000000	8.766249	8.200606	468.522504
4765.000000	9.580842	9.325487	965.750291
4767.000000	9.105212	9.269051	1304.962452
4769.000000	8.793626	9.106150	1321.328106
4771.000000	8.426239	7.813917	707.294619
4773.000000	10.377534	10.156294	1372.833195
4775.000000	10.191051	9.915117	1340.934629
4777.000000	9.636978	8.965589	951.486844
4779.000000	10.104011	9.768971	1649.424123
4781.000000	9.545964	8.424888	2045.062579
4783.000000	8.891362	9.008493	1744.996228
4785.000000	10.278850	10.155179	1003.402872
