

# Disconnected MM\
# Scan parameters: power 16.000000 dBm, bandwidth 1.500000 Hz
# Frequency [MHz]	avg noise	std noise	peak value
3851.000000	0.124378	0.131748	1854.136911
3853.000000	0.121975	0.164721	2026.189355
3855.000000	0.126429	0.294439	1300.145499
3857.000000	0.122695	0.121805	1257.334119
3859.000000	0.095422	0.132902	1691.379719
3861.000000	0.109482	0.107568	1291.674278
3863.000000	0.119328	0.145096	587.776792
3865.000000	0.114429	0.131204	1063.485695
3867.000000	0.119936	0.117866	1304.125839
3869.000000	0.129282	0.150997	1089.241540
3871.000000	0.128015	0.184610	970.790025
3873.000000	0.117993	0.113437	1790.087403
3875.000000	0.139836	0.165818	1797.906019
3877.000000	0.131577	0.162618	1093.756328
3879.000000	0.126729	0.124889	1600.744234
3881.000000	0.121800	0.152199	1989.234440
3883.000000	0.133550	0.215359	1382.751971
3885.000000	0.144555	0.192625	792.517649
3887.000000	0.123936	0.128875	1235.574843
3889.000000	0.121170	0.131278	1297.970216
3891.000000	0.130297	0.125532	705.281201
3893.000000	0.146054	0.152831	965.563879
3895.000000	0.133214	0.140767	1364.674655
3897.000000	0.113500	0.118066	1094.573497
3899.000000	0.130506	0.183115	516.081344
3901.000000	0.112992	0.108689	867.329668
3903.000000	0.130732	0.143606	838.784004
3905.000000	0.135555	0.121021	489.206072
3907.000000	0.140194	0.148467	416.110285
3909.000000	0.120532	0.132655	530.994874
3911.000000	0.131294	0.127296	406.166739
3913.000000	0.122569	0.121919	180.619351
3915.000000	0.133293	0.142712	294.464633
3917.000000	0.115679	0.120976	271.288080
3919.000000	0.133464	0.130403	141.830935
3921.000000	0.124654	0.121293	81.535696
3923.000000	0.133751	0.139671	88.794208
3925.000000	0.129577	0.134385	47.046399
3927.000000	0.131220	0.122405	13.740192
3929.000000	0.129001	0.123580	14.808571
3931.000000	0.128710	0.122230	17.892331
3933.000000	0.125798	0.120445	8.696135
3935.000000	0.119397	0.112951	7.475016
3937.000000	0.115880	0.124646	14.375889
3939.000000	0.118090	0.134484	18.209091
3941.000000	0.124316	0.113189	15.223639
3943.000000	0.116715	0.110532	30.105452
3945.000000	0.123383	0.122852	69.070497
3947.000000	0.119289	0.108283	57.906697
3949.000000	0.121754	0.125596	24.821311
3951.000000	0.136807	0.125950	54.939352
3953.000000	0.128670	0.136588	54.356563
3955.000000	0.120510	0.124123	48.022164
3957.000000	0.132864	0.153913	79.685812
3959.000000	0.130572	0.131513	172.475033
3961.000000	0.121984	0.098523	233.844801
3963.000000	0.122152	0.136917	146.845807
3965.000000	0.133341	0.145487	327.973695
3967.000000	0.119105	0.107994	419.072848
3969.000000	0.135073	0.142958	266.727851
3971.000000	0.102062	0.093574	173.734377
3973.000000	0.128792	0.117928	226.571948
3975.000000	0.121388	0.123737	133.807162
3977.000000	0.120849	0.112369	64.475728
3979.000000	0.125771	0.117027	140.718481
3981.000000	0.120899	0.103342	251.833853
3983.000000	0.110336	0.108524	262.898415
3985.000000	0.132899	0.131385	221.294534
3987.000000	0.131156	0.131592	527.391065
3989.000000	0.113241	0.112282	654.285418
3991.000000	0.152574	0.176226	449.269494
3993.000000	0.133377	0.136926	762.213661
3995.000000	0.114688	0.112653	1448.872892
3997.000000	0.144412	0.203209	1405.868946
3999.000000	0.164428	0.194128	785.790780
4001.000000	0.140411	0.145529	1588.291087
4003.000000	0.145219	0.177313	1692.382819
4005.000000	0.131176	0.143934	1106.926264
4007.000000	0.140130	0.136906	1071.207280
4009.000000	0.129986	0.130508	1380.840388
4011.000000	0.131755	0.138904	1072.954151
4013.000000	0.163109	0.168612	508.056926
4015.000000	0.120829	0.126272	907.090700
4017.000000	0.127917	0.120583	974.084743
4019.000000	0.127427	0.135057	585.683772
4021.000000	0.129271	0.137760	438.568923
4023.000000	0.124957	0.124739	633.881903
4025.000000	0.117969	0.121979	518.852985
4027.000000	0.129839	0.140804	281.307143
4029.000000	0.129069	0.122643	354.207248
4031.000000	0.128628	0.134913	407.326331
4033.000000	0.140546	0.135679	376.720589
4035.000000	0.135228	0.133629	369.740581
4037.000000	0.155627	0.181972	888.836935
4039.000000	0.133180	0.136415	1103.357228
4041.000000	0.136966	0.148601	682.805065
4043.000000	0.146529	0.154225	806.104908
4045.000000	0.125639	0.121197	993.433929
4047.000000	0.146697	0.162745	729.688320
4049.000000	0.126365	0.131200	395.352945
4051.000000	0.123531	0.131032	734.151947
4053.000000	0.132635	0.159190	767.434343
4055.000000	0.133010	0.174556	457.682041
4057.000000	0.130537	0.127674	400.290985
4059.000000	0.133711	0.124771	462.185278
4061.000000	0.124005	0.116871	304.533072
4063.000000	0.130440	0.114236	111.797879
4065.000000	0.127494	0.135885	182.100996
4067.000000	0.133771	0.138377	225.257649
4069.000000	0.111256	0.110202	163.403882
4071.000000	0.121572	0.140818	136.028296
4073.000000	0.134577	0.141431	205.393716
4075.000000	0.141763	0.140367	175.798562
4077.000000	0.125739	0.109213	119.086899
4079.000000	0.139362	0.150886	268.603544
4081.000000	0.120334	0.119877	414.174385
4083.000000	0.142842	0.156926	333.956396
4085.000000	0.116485	0.108362	227.978777
4087.000000	0.126081	0.127962	392.119439
4089.000000	0.136662	0.134347	435.185251
4091.000000	0.138415	0.133304	330.172254
4093.000000	0.134442	0.137783	536.626724
4095.000000	0.127415	0.132787	924.992047
4097.000000	0.132854	0.168378	796.839275
4099.000000	0.147826	0.141918	410.361162
4101.000000	0.121886	0.125715	851.390514
4103.000000	0.106027	0.103425	927.338675
4105.000000	0.112738	0.116417	589.379643
4107.000000	0.131109	0.143523	547.016797
4109.000000	0.117472	0.108266	754.266129
4111.000000	0.123289	0.115395	600.263865
4113.000000	0.127340	0.125903	242.325278
4115.000000	0.107208	0.115250	416.877190
4117.000000	0.128960	0.129790	448.952903
4119.000000	0.126927	0.124651	324.322689
4121.000000	0.137762	0.141267	243.411687
4123.000000	0.137145	0.141274	355.349780
4125.000000	0.131076	0.135411	262.234507
4127.000000	0.110544	0.102003	122.666724
4129.000000	0.126964	0.135121	140.050134
4131.000000	0.125978	0.117919	149.717403
4133.000000	0.144912	0.157107	111.794665
4135.000000	0.142035	0.159080	89.328706
4137.000000	0.166072	0.179130	157.707577
4139.000000	0.143771	0.157016	178.258949
4141.000000	0.136000	0.128978	109.799150
4143.000000	0.136686	0.142941	139.136062
4145.000000	0.122433	0.116331	160.230098
4147.000000	0.117554	0.124177	122.799897
4149.000000	0.115455	0.120741	52.186158
4151.000000	0.115918	0.121703	122.434976
4153.000000	0.107229	0.114910	139.964654
4155.000000	0.111179	0.099384	85.410824
4157.000000	0.105108	0.091280	87.000553
4159.000000	0.092962	0.090520	120.681455
4161.000000	0.104802	0.104625	102.521195
4163.000000	0.112416	0.109847	46.284836
4165.000000	0.094443	0.082874	89.583645
4167.000000	0.095662	0.100339	97.639620
4169.000000	0.093388	0.101592	59.186116
4171.000000	0.075290	0.067873	48.492406
4173.000000	0.106358	0.104453	77.848180
4175.000000	0.097930	0.091532	51.833212
4177.000000	0.089686	0.082731	20.545949
4179.000000	0.102956	0.104952	26.873817
4181.000000	0.093261	0.090613	32.282005
4183.000000	0.087395	0.084387	21.270477
4185.000000	0.087952	0.070667	16.065604
4187.000000	0.089791	0.086116	21.492990
4189.000000	0.090901	0.100723	8.857335
4191.000000	0.088759	0.091032	3.684618
4193.000000	0.076386	0.078901	1.878036
4195.000000	0.092452	0.094000	7.100419
4197.000000	0.087617	0.082241	7.394639
4199.000000	0.080947	0.076355	6.390899
4201.000000	0.085141	0.090875	12.502684
4203.000000	0.079125	0.078711	8.935262
4205.000000	0.087423	0.095357	6.420506
4207.000000	0.084302	0.084395	5.356596
4209.000000	0.079196	0.078557	9.325445
4211.000000	0.095554	0.095939	6.462467
4213.000000	0.075185	0.073878	6.098068
4215.000000	0.083112	0.073929	15.028127
4217.000000	0.070711	0.065573	20.493082
4219.000000	0.087992	0.081796	18.130778
4221.000000	0.082460	0.085424	18.900936
4223.000000	0.070709	0.068092	34.527230
4225.000000	0.076032	0.076890	39.715426
4227.000000	0.075719	0.078063	29.330627
4229.000000	0.069473	0.062974	60.061435
4231.000000	0.066721	0.063782	76.638864
4233.000000	0.071026	0.076870	63.657807
4235.000000	0.088741	0.091943	38.198544
4237.000000	0.073914	0.076658	76.693714
4239.000000	0.073470	0.070940	72.915617
4241.000000	0.086722	0.089822	40.270852
4243.000000	0.079008	0.072547	59.430672
4245.000000	0.068732	0.062652	94.323638
4247.000000	0.078283	0.071263	93.099067
4249.000000	0.074166	0.076156	70.413458
4251.000000	0.077987	0.074115	201.257443
4253.000000	0.080373	0.087711	266.423348
4255.000000	0.082342	0.101594	192.078990
4257.000000	0.071516	0.073128	197.845140
4259.000000	0.082409	0.087404	330.266946
4261.000000	0.088031	0.084772	306.108039
4263.000000	0.085404	0.094628	148.513348
4265.000000	0.085335	0.086071	271.833069
4267.000000	0.082735	0.088048	287.478575
4269.000000	0.070543	0.069455	175.310732
4271.000000	0.082965	0.089308	125.126906
4273.000000	0.077019	0.068185	200.323844
4275.000000	0.073428	0.076456	230.120748
4277.000000	0.076827	0.077896	184.586335
4279.000000	0.077231	0.078227	341.545007
4281.000000	0.075511	0.065873	438.932442
4283.000000	0.076437	0.097707	335.961594
4285.000000	0.078622	0.072805	234.788041
4287.000000	0.069439	0.078719	373.195425
4289.000000	0.081175	0.090937	376.447055
4291.000000	0.082418	0.076478	205.650995
4293.000000	0.079026	0.080406	258.418624
4295.000000	0.064464	0.066318	344.278539
4297.000000	0.065793	0.063435	268.983442
4299.000000	0.072010	0.079099	139.461155
4301.000000	0.069114	0.065971	300.700174
4303.000000	0.075553	0.081938	335.895132
4305.000000	0.068783	0.071215	220.425743
4307.000000	0.064539	0.059478	222.809155
4309.000000	0.070718	0.078618	336.325872
4311.000000	0.068698	0.059457	276.083384
4313.000000	0.082314	0.076732	134.198965
4315.000000	0.076213	0.077271	256.498602
4317.000000	0.068454	0.073060	278.889566
4319.000000	0.070053	0.071205	189.136432
4321.000000	0.071126	0.067771	128.629104
4323.000000	0.070676	0.063228	218.004130
4325.000000	0.074052	0.069316	192.758333
4327.000000	0.066136	0.060465	102.165144
4329.000000	0.080650	0.086150	157.689348
4331.000000	0.072182	0.076555	193.112625
4333.000000	0.073168	0.077643	127.068340
4335.000000	0.075805	0.071573	73.062171
4337.000000	0.072111	0.065070	106.211982
4339.000000	0.076424	0.079679	93.116012
4341.000000	0.076388	0.085757	59.077125
4343.000000	0.073604	0.077075	66.678940
4345.000000	0.072629	0.084201	82.096644
4347.000000	0.073479	0.075893	63.250608
4349.000000	0.072559	0.066995	29.889864
4351.000000	0.064344	0.065394	54.636712
4353.000000	0.069472	0.064754	59.377162
4355.000000	0.067829	0.061585	35.134676
4357.000000	0.074225	0.071832	38.295943
4359.000000	0.068474	0.064967	53.946747
4361.000000	0.068698	0.071625	45.582754
4363.000000	0.072101	0.066338	25.773655
4365.000000	0.066574	0.070503	51.720270
4367.000000	0.073097	0.076622	61.182228
4369.000000	0.077628	0.083044	36.462772
4371.000000	0.070130	0.074008	29.723535
4373.000000	0.072003	0.066631	49.689211
4375.000000	0.067297	0.065296	50.634627
4377.000000	0.075581	0.066423	25.939774
4379.000000	0.071434	0.071334	41.395387
4381.000000	0.080505	0.075001	48.864210
4383.000000	0.066879	0.060761	36.657633
4385.000000	0.074801	0.085656	28.066471
4387.000000	0.065874	0.067693	52.148754
4389.000000	0.073241	0.072666	57.333534
4391.000000	0.074173	0.085021	36.141838
4393.000000	0.074527	0.080631	55.171118
4395.000000	0.063542	0.060339	70.837508
4397.000000	0.068975	0.074518	61.826450
4399.000000	0.073058	0.072283	29.268493
4401.000000	0.082335	0.080415	67.514469
4403.000000	0.073070	0.074194	68.138853
4405.000000	0.065137	0.065979	42.666006
4407.000000	0.078263	0.075222	45.613534
4409.000000	0.075043	0.081168	70.230221
4411.000000	0.075195	0.076010	61.115004
4413.000000	0.072195	0.067104	32.535320
4415.000000	0.078949	0.078908	63.017817
4417.000000	0.074351	0.071764	83.888449
4419.000000	0.074167	0.073796	56.718834
4421.000000	0.078498	0.077486	45.329376
4423.000000	0.080165	0.087555	77.773780
4425.000000	0.081059	0.084528	68.427368
4427.000000	0.073992	0.070233	40.912075
4429.000000	0.077693	0.081834	45.731942
4431.000000	0.082729	0.080214	60.233941
4433.000000	0.074233	0.069027	46.965852
4435.000000	0.081633	0.088107	33.190633
4437.000000	0.091215	0.118326	59.750779
4439.000000	0.085405	0.083349	60.625128
4441.000000	0.103313	0.093414	34.668570
4443.000000	0.086901	0.089566	46.550538
4445.000000	0.087450	0.084073	70.480240
4447.000000	0.084086	0.089850	55.478055
4449.000000	0.088049	0.091620	25.312726
4451.000000	0.080398	0.087894	42.763985
4453.000000	0.092545	0.091158	35.607962
4455.000000	0.084809	0.080248	22.952583
4457.000000	0.082963	0.086519	21.873233
4459.000000	0.086087	0.071981	24.138367
4461.000000	0.095579	0.091308	15.627545
4463.000000	0.085006	0.083897	12.475252
4465.000000	0.097345	0.115146	19.665591
4467.000000	0.100456	0.091385	21.831502
4469.000000	0.100309	0.105525	19.819555
4471.000000	0.100947	0.113732	12.683579
4473.000000	0.097548	0.102501	16.476504
4475.000000	0.091368	0.103674	9.100608
4477.000000	0.097727	0.095039	2.222866
4479.000000	0.098402	0.091867	0.896970
4481.000000	0.097439	0.090668	0.437185
4483.000000	0.097660	0.094366	0.292685
4485.000000	0.085979	0.080922	0.481972
4487.000000	0.103246	0.106019	0.378381
4489.000000	0.102599	0.099408	0.686853
4491.000000	0.118730	0.111081	0.989071
4493.000000	0.104549	0.106022	3.991101
4495.000000	0.095037	0.098433	7.979079
4497.000000	0.100248	0.093530	9.515048
4499.000000	0.104711	0.107822	6.380167
4501.000000	0.102284	0.106517	13.301177
4503.000000	0.106590	0.104107	14.337639
4505.000000	0.094623	0.099210	7.557760
4507.000000	0.100721	0.095792	7.511698
4509.000000	0.103576	0.093048	10.676570
4511.000000	0.102053	0.099469	9.974701
4513.000000	0.106334	0.099924	5.041605
4515.000000	0.102953	0.105504	11.136059
4517.000000	0.095828	0.103834	10.129977
4519.000000	0.087455	0.070128	5.880404
4521.000000	0.093233	0.098298	1.992371
4523.000000	0.091822	0.084915	0.608115
4525.000000	0.100320	0.097043	0.372943
4527.000000	0.088501	0.093204	0.421045
4529.000000	0.080232	0.068805	1.615668
4531.000000	0.090657	0.098887	2.069528
4533.000000	0.093096	0.098248	3.896427
4535.000000	0.093725	0.089441	2.749929
4537.000000	0.079828	0.073215	8.255151
4539.000000	0.088682	0.080926	14.796233
4541.000000	0.090107	0.095794	9.097092
4543.000000	0.106504	0.094557	16.826520
4545.000000	0.099942	0.098402	26.129169
4547.000000	0.083102	0.084087	22.058258
4549.000000	0.085950	0.084992	12.521177
4551.000000	0.092322	0.098369	26.162488
4553.000000	0.082361	0.082280	26.183999
4555.000000	0.089869	0.087801	20.566655
4557.000000	0.085175	0.087924	21.618174
4559.000000	0.087893	0.092131	31.275163
4561.000000	0.088926	0.081818	29.703376
4563.000000	0.084360	0.086578	10.176779
4565.000000	0.074320	0.074205	17.242062
4567.000000	0.088272	0.085206	19.791810
4569.000000	0.078690	0.076698	11.613134
4571.000000	0.079891	0.081932	7.845787
4573.000000	0.081298	0.075120	16.560886
4575.000000	0.086289	0.089388	21.715076
4577.000000	0.077289	0.070173	12.734040
4579.000000	0.082668	0.084295	23.740001
4581.000000	0.097865	0.093669	30.420436
4583.000000	0.076329	0.074795	22.667775
4585.000000	0.082034	0.075618	16.948507
4587.000000	0.069027	0.062892	22.800504
4589.000000	0.077838	0.075226	16.790265
4591.000000	0.073611	0.066551	7.807795
4593.000000	0.071415	0.064593	9.088508
4595.000000	0.081240	0.080016	7.233025
4597.000000	0.072660	0.072816	3.071036
4599.000000	0.073748	0.078034	0.494737
4601.000000	0.084823	0.084344	0.276548
4603.000000	0.083141	0.081289	1.285821
4605.000000	0.094692	0.097644	3.180831
4607.000000	0.071137	0.067328	7.720465
4609.000000	0.082195	0.080645	15.979602
4611.000000	0.081456	0.088143	20.536635
4613.000000	0.076328	0.072508	8.343860
4615.000000	0.075058	0.076120	18.588864
4617.000000	0.079441	0.081022	19.883334
4619.000000	0.080853	0.080531	16.924566
4621.000000	0.074677	0.074213	16.872744
4623.000000	0.074556	0.072352	47.528288
4625.000000	0.084193	0.087976	45.980043
4627.000000	0.077225	0.076046	33.012486
4629.000000	0.076852	0.076851	50.302268
4631.000000	0.078946	0.078799	74.165293
4633.000000	0.087394	0.091910	74.978796
4635.000000	0.079263	0.105535	71.936983
4637.000000	0.080838	0.077792	145.545343
4639.000000	0.075058	0.076663	175.236936
4641.000000	0.073945	0.076935	115.719598
4643.000000	0.077147	0.078813	153.761796
4645.000000	0.074158	0.078535	236.676988
4647.000000	0.081676	0.099372	205.719784
4649.000000	0.080191	0.078230	102.328602
4651.000000	0.077501	0.080366	198.580944
4653.000000	0.079196	0.073118	195.433508
4655.000000	0.069947	0.072349	107.229634
4657.000000	0.078272	0.074401	96.808693
4659.000000	0.083268	0.086252	143.952824
4661.000000	0.076667	0.070711	130.020725
4663.000000	0.098505	0.091025	69.742962
4665.000000	0.097760	0.095543	102.987104
4667.000000	0.094416	0.091364	124.276664
4669.000000	0.075670	0.071942	92.031093
4671.000000	0.083555	0.086277	60.871530
4673.000000	0.090499	0.096374	95.881511
4675.000000	0.101324	0.105816	83.456705
4677.000000	0.087801	0.080032	44.729396
4679.000000	0.080838	0.082164	66.922946
4681.000000	0.092891	0.100911	99.490970
4683.000000	0.096608	0.101902	92.101336
4685.000000	0.093617	0.084595	54.946673
4687.000000	0.093241	0.081743	91.310462
4689.000000	0.083467	0.078601	82.898549
4691.000000	0.090065	0.094012	46.282518
4693.000000	0.091642	0.081236	48.466081
4695.000000	0.090251	0.095101	56.974312
4697.000000	0.089465	0.087657	37.883493
4699.000000	0.098218	0.096590	19.426347
4701.000000	0.086238	0.087675	36.871486
4703.000000	0.089712	0.098352	43.415287
4705.000000	0.093639	0.094140	30.818036
4707.000000	0.090284	0.095100	34.729036
4709.000000	0.082761	0.084256	52.944079
4711.000000	0.088158	0.076486	40.099640
4713.000000	0.102358	0.114235	23.776763
4715.000000	0.083597	0.092296	47.641851
4717.000000	0.111724	0.103740	56.644583
4719.000000	0.089954	0.094712	40.069290
4721.000000	0.094044	0.090175	36.296599
4723.000000	0.087584	0.091237	74.013728
4725.000000	0.085612	0.086283	58.436958
4727.000000	0.092729	0.090439	31.007239
4729.000000	0.103486	0.097071	36.952791
4731.000000	0.096674	0.098615	26.454623
4733.000000	0.093510	0.088868	7.783865
4735.000000	0.093964	0.099197	2.175738
4737.000000	0.088328	0.089843	4.200829
4739.000000	0.091124	0.084762	5.776303
4741.000000	0.098013	0.089012	2.660837
4743.000000	0.094003	0.092358	3.920806
4745.000000	0.098068	0.094593	11.511134
4747.000000	0.096636	0.095833	11.963725
4749.000000	0.090072	0.083400	9.179205
4751.000000	0.088608	0.089659	13.347247
4753.000000	0.100183	0.088418	16.129788
4755.000000	0.097641	0.093029	10.035594
4757.000000	0.087897	0.100209	7.118855
4759.000000	0.088779	0.081800	9.522926
4761.000000	0.085918	0.081352	7.362480
4763.000000	0.096476	0.098192	3.856568
4765.000000	0.093391	0.098403	4.812102
4767.000000	0.093779	0.088622	8.759816
4769.000000	0.088780	0.084650	5.065037
4771.000000	0.090125	0.094475	6.632766
4773.000000	0.096011	0.094160	6.576594
4775.000000	0.099637	0.106823	2.835451
4777.000000	0.084239	0.071687	2.174863
4779.000000	0.097535	0.109597	1.010219
4781.000000	0.089135	0.085893	0.530600
4783.000000	0.098810	0.089962	3.204536
4785.000000	0.098469	0.101179	4.038552
4787.000000	0.099664	0.097851	13.595996
4789.000000	0.091042	0.089976	25.871629
4791.000000	0.097155	0.094509	31.208463
4793.000000	0.107808	0.106890	45.148222
4795.000000	0.099602	0.099483	75.096021
4797.000000	0.095865	0.097734	80.952895
4799.000000	0.110079	0.118051	49.753167
4801.000000	0.091751	0.083908	79.918881
4803.000000	0.102121	0.101665	89.215891
4805.000000	0.101130	0.096091	48.508943
4807.000000	0.091480	0.087875	46.630793
4809.000000	0.108002	0.117329	70.256996
4811.000000	0.104019	0.107360	56.484989
4813.000000	0.100980	0.091005	24.604240
4815.000000	0.098282	0.095504	42.858567
4817.000000	0.101617	0.100204	69.209507
4819.000000	0.096447	0.094132	55.701027
4821.000000	0.092776	0.087532	39.253391
4823.000000	0.084039	0.083192	46.576016
4825.000000	0.096305	0.090650	29.133813
4827.000000	0.124024	0.116398	5.134513
4829.000000	0.107451	0.102921	3.914754
4831.000000	0.098521	0.107924	0.846780
4833.000000	0.100572	0.098354	0.569231
4835.000000	0.101011	0.111761	1.919529
