

# Refocussed
# Scan parameters: power 16.000000 dBm, bandwidth 1.500000 Hz
# Frequency [MHz]	avg noise	std noise	peak value
3851.000000	0.933517	0.889804	1045.698386
3853.000000	0.906704	0.846363	1200.829785
3855.000000	1.059996	1.030817	863.239549
3857.000000	1.123396	1.171638	992.610713
3859.000000	1.055151	0.980104	1443.255826
3861.000000	1.250855	1.267565	1308.110135
3863.000000	1.177868	1.245039	728.322609
3865.000000	1.133539	1.227310	1187.593641
3867.000000	1.103348	1.114289	1526.279264
3869.000000	0.894790	0.885013	905.947598
3871.000000	0.850054	0.816346	838.494344
3873.000000	0.837757	0.813486	1368.423691
3875.000000	0.880554	0.855434	1421.856634
3877.000000	0.768892	0.817513	941.198093
3879.000000	0.961895	1.104152	1537.023976
3881.000000	0.874153	0.926860	2067.396903
3883.000000	0.947127	0.842835	1714.326771
3885.000000	1.062150	1.102013	1165.809434
3887.000000	0.991753	1.027281	1919.749203
3889.000000	1.072881	1.178469	2174.031540
3891.000000	1.124838	1.302196	1179.209421
3893.000000	0.966100	1.032113	1628.523278
3895.000000	1.211542	1.235875	1952.567058
3897.000000	1.286624	1.312246	1683.313397
3899.000000	1.535357	1.478919	794.190085
3901.000000	2.775813	2.735222	1492.194114
3903.000000	4.150749	4.006690	1309.749506
3905.000000	5.270877	5.602940	815.181086
3907.000000	7.695500	7.275380	762.132329
3909.000000	6.964527	7.334928	1500.183342
3911.000000	5.872473	5.729204	1125.249473
3913.000000	4.766761	4.769636	616.028837
3915.000000	5.070706	4.712272	1037.466334
3917.000000	3.205973	3.108843	1262.108409
3919.000000	2.772906	2.704821	963.046010
3921.000000	2.413454	2.345159	921.318528
3923.000000	2.539557	2.327402	1664.152796
3925.000000	2.428114	2.234858	1270.766188
3927.000000	2.052823	2.105048	793.216582
3929.000000	2.559557	2.629062	1085.800554
3931.000000	2.964813	2.692695	1212.138468
3933.000000	3.536171	3.565442	961.030228
3935.000000	3.774185	3.624441	429.308387
3937.000000	3.482217	3.488407	512.240744
3939.000000	3.075101	3.176091	440.569669
3941.000000	3.635896	4.054634	212.251749
3943.000000	3.729244	3.642395	257.237366
3945.000000	2.795971	2.667433	433.990128
3947.000000	2.884321	2.565172	469.515895
3949.000000	2.650543	2.768205	291.996219
3951.000000	2.272299	2.274323	693.575016
3953.000000	2.060251	2.218123	1011.150776
3955.000000	1.935823	2.033229	721.746659
3957.000000	1.665137	1.542901	799.645718
3959.000000	1.452511	1.302885	1150.835296
3961.000000	1.391478	1.388760	929.705141
3963.000000	1.186823	1.237964	504.143832
3965.000000	1.067336	1.022604	1064.671246
3967.000000	1.038766	0.966374	1244.126002
3969.000000	1.034669	0.998096	927.915172
3971.000000	0.936550	0.945699	731.154657
3973.000000	0.920177	0.848207	1065.457200
3975.000000	0.953981	0.886170	877.945797
3977.000000	0.840575	0.868811	448.982814
3979.000000	0.716340	0.738242	530.917986
3981.000000	0.745735	0.741455	602.758058
3983.000000	0.723418	0.690949	498.571823
3985.000000	0.970265	1.060958	391.008588
3987.000000	0.880162	0.874003	821.614105
3989.000000	0.822336	0.745233	1052.670655
3991.000000	1.106414	0.975134	702.863380
3993.000000	0.877963	0.982713	947.335054
3995.000000	1.014045	0.975089	1566.875219
3997.000000	1.139392	1.138170	1365.504380
3999.000000	1.223704	1.273900	725.481440
4001.000000	1.415835	1.561327	1501.875711
4003.000000	1.577920	1.665278	1783.795507
4005.000000	1.471859	1.438846	1186.152049
4007.000000	1.405244	1.319017	1009.677428
4009.000000	1.695724	1.822509	1478.950799
4011.000000	1.607271	1.588358	970.671210
4013.000000	1.677643	1.593023	394.932882
4015.000000	2.130003	2.071937	609.328445
4017.000000	2.251467	2.017659	692.414020
4019.000000	2.527403	2.262157	497.654449
4021.000000	2.585682	2.587582	304.413724
4023.000000	2.794607	2.718847	674.674783
4025.000000	2.561014	2.542648	629.519216
4027.000000	2.920687	3.250583	480.841575
4029.000000	3.046659	2.861240	569.572079
4031.000000	3.302673	3.694348	852.905219
4033.000000	3.338383	3.748830	674.028900
4035.000000	3.347705	3.330915	472.434966
4037.000000	3.677233	3.297205	888.551574
4039.000000	3.331354	3.545414	966.592857
4041.000000	4.201314	4.342214	596.617022
4043.000000	4.797054	4.569781	627.029425
4045.000000	4.080517	4.475136	834.951453
4047.000000	4.667718	4.911362	668.655939
4049.000000	4.325803	4.212780	340.370807
4051.000000	5.112976	4.626078	643.118576
4053.000000	4.831953	4.600402	646.350934
4055.000000	5.399789	5.379280	287.438340
4057.000000	5.379177	5.317035	225.045930
4059.000000	5.279120	5.221091	200.490964
4061.000000	4.975995	5.051528	157.761580
4063.000000	4.744497	4.858116	84.669337
4065.000000	4.322711	4.857073	166.733360
4067.000000	3.826661	3.424382	187.198816
4069.000000	3.846735	3.502496	99.128169
4071.000000	3.165370	3.349914	143.285350
4073.000000	3.275714	3.205403	264.055140
4075.000000	3.148867	3.031220	222.724643
4077.000000	3.149821	3.139378	136.464250
4079.000000	3.256392	3.258908	270.605548
4081.000000	2.815550	2.609894	507.742748
4083.000000	2.124230	2.255061	410.345974
4085.000000	2.228688	2.174052	298.698288
4087.000000	2.041588	2.128052	606.549485
4089.000000	1.601395	1.591985	611.687233
4091.000000	1.942448	1.858169	515.002014
4093.000000	1.502283	1.279099	667.212006
4095.000000	1.492276	1.608618	1130.553135
4097.000000	1.478876	1.630856	993.039213
4099.000000	1.258285	1.171311	554.823950
4101.000000	1.210974	1.207531	1128.178676
4103.000000	1.026586	1.000740	994.300924
4105.000000	1.042178	1.036482	594.738171
4107.000000	0.924217	0.903748	577.533883
4109.000000	0.831145	0.735143	821.801680
4111.000000	0.818354	0.786720	700.640936
4113.000000	0.774866	0.774257	341.898828
4115.000000	0.486891	0.566995	595.949997
4117.000000	0.601588	0.587143	681.411676
4119.000000	0.521106	0.552946	451.113736
4121.000000	0.567328	0.557565	302.882002
4123.000000	0.463019	0.473976	499.007295
4125.000000	0.536298	0.601988	408.215303
4127.000000	0.431212	0.404656	273.557541
4129.000000	0.509917	0.542072	383.845738
4131.000000	0.468310	0.441089	526.747862
4133.000000	0.458983	0.469557	405.440953
4135.000000	0.422936	0.429045	298.012273
4137.000000	0.419608	0.429790	493.744830
4139.000000	0.410348	0.442373	507.066312
4141.000000	0.473125	0.503803	296.788344
4143.000000	0.379513	0.372171	337.687610
4145.000000	0.392564	0.411188	440.875633
4147.000000	0.373543	0.359284	317.615976
4149.000000	0.382563	0.414738	131.173421
4151.000000	0.377839	0.383502	253.788808
4153.000000	0.328460	0.307233	281.052412
4155.000000	0.378525	0.420113	191.281853
4157.000000	0.341888	0.353183	168.753445
4159.000000	0.367912	0.374738	212.992626
4161.000000	0.387925	0.317645	152.143465
4163.000000	0.385954	0.389624	52.232755
4165.000000	0.335938	0.309275	87.146775
4167.000000	0.429691	0.444091	79.204773
4169.000000	0.447557	0.480146	47.410319
4171.000000	0.620263	0.619982	38.706392
4173.000000	0.721754	0.762079	39.816777
4175.000000	0.687927	0.689337	36.445711
4177.000000	0.837797	0.804563	29.968309
4179.000000	0.992549	1.044718	22.413099
4181.000000	1.642801	1.573629	18.969457
4183.000000	2.144191	2.024118	17.182609
4185.000000	2.634490	2.605977	12.810371
4187.000000	3.125872	2.883547	13.072606
4189.000000	3.499140	3.455446	22.548133
4191.000000	3.916748	4.774064	45.216320
4193.000000	3.692938	3.354119	25.588493
4195.000000	4.340923	4.536142	45.417778
4197.000000	5.325173	5.748854	40.604747
4199.000000	4.363654	4.108901	20.219466
4201.000000	6.432663	5.887806	25.256232
4203.000000	5.640789	5.530236	38.933581
4205.000000	5.598908	5.061590	27.928478
4207.000000	5.339430	5.455346	28.266358
4209.000000	5.453115	5.910730	51.424003
4211.000000	4.711836	4.595698	53.756454
4213.000000	5.611398	5.374344	30.379623
4215.000000	5.723829	5.162869	33.403759
4217.000000	6.048656	5.204579	41.786802
4219.000000	6.547718	6.268283	80.558262
4221.000000	5.775387	5.808087	38.970678
4223.000000	6.257552	7.284844	77.261734
4225.000000	6.088169	6.261323	53.397434
4227.000000	6.561626	6.208367	41.048757
4229.000000	6.159763	5.651842	48.480145
4231.000000	5.369534	5.037535	50.322169
4233.000000	5.065830	4.894904	97.177753
4235.000000	7.407884	7.786961	41.975604
4237.000000	5.190010	4.732169	47.202672
4239.000000	3.863972	3.502826	40.136688
4241.000000	4.474475	4.636613	24.652266
4243.000000	3.672673	3.784398	27.853177
4245.000000	3.688432	3.180198	23.586869
4247.000000	3.062596	2.919336	17.721336
4249.000000	3.325202	3.329156	21.827419
4251.000000	3.539758	3.549183	18.509052
4253.000000	3.262958	3.107852	38.285016
4255.000000	3.060872	3.385939	18.929135
4257.000000	2.523616	2.505160	19.107710
4259.000000	3.162250	2.717900	14.554229
4261.000000	2.274963	2.327359	13.618799
4263.000000	2.456032	2.621758	11.440797
4265.000000	2.371966	2.501525	11.694275
4267.000000	1.996694	1.824114	10.883874
4269.000000	1.829390	1.742809	11.324594
4271.000000	1.991165	1.929605	6.039036
4273.000000	1.757531	1.781497	6.890847
4275.000000	1.437612	1.499493	5.539178
4277.000000	1.284606	1.223295	5.977559
4279.000000	1.101735	1.074948	9.165836
4281.000000	1.054177	0.979476	5.305521
4283.000000	0.949215	0.918903	7.459998
4285.000000	0.882309	0.877327	4.464909
4287.000000	0.676955	0.688800	2.557975
4289.000000	0.531377	0.550321	3.500967
4291.000000	0.476856	0.537123	2.073054
4293.000000	0.382019	0.394458	1.545684
4295.000000	0.330406	0.331412	1.799767
4297.000000	0.318653	0.340608	4.081235
4299.000000	0.344411	0.296655	3.720735
4301.000000	0.323203	0.325763	14.303450
4303.000000	0.293954	0.303986	16.595557
4305.000000	0.353727	0.356839	14.579895
4307.000000	0.344549	0.311211	18.659742
4309.000000	0.299106	0.337644	33.366087
4311.000000	0.425732	0.433242	27.290481
4313.000000	0.511619	0.507777	27.008732
4315.000000	0.621781	0.546129	60.052190
4317.000000	0.762493	0.769874	98.469809
4319.000000	0.967291	0.905871	61.162244
4321.000000	1.298062	1.238834	72.437917
4323.000000	1.710886	1.510508	115.104237
4325.000000	1.682974	1.542828	145.437105
4327.000000	1.875550	1.629203	99.131238
4329.000000	1.837234	1.680650	148.806985
4331.000000	2.163627	2.250367	225.783172
4333.000000	2.123622	2.016959	216.651060
4335.000000	2.233143	2.326973	115.879980
4337.000000	2.472395	2.487832	265.743830
4339.000000	2.226768	2.186586	335.379608
4341.000000	2.302965	2.390073	212.460755
4343.000000	2.625342	2.418752	224.677454
4345.000000	2.653521	2.774596	318.478405
4347.000000	2.862024	2.865510	251.701355
4349.000000	2.931354	3.290802	114.409079
4351.000000	2.733623	2.551813	232.894140
4353.000000	3.086582	3.211628	279.765017
4355.000000	3.304570	3.397647	205.162419
4357.000000	2.834110	2.674059	184.733757
4359.000000	3.314440	2.761613	259.824549
4361.000000	3.085402	3.067245	184.053266
4363.000000	3.248716	3.543570	88.176832
4365.000000	3.029654	3.037458	198.183373
4367.000000	2.343357	2.112346	153.387169
4369.000000	2.543226	2.316498	118.698371
4371.000000	2.543296	2.746631	96.115624
4373.000000	2.130030	2.190594	148.468678
4375.000000	2.444821	2.748764	119.177962
4377.000000	2.042318	2.350731	48.399510
4379.000000	2.103777	1.984617	71.816737
4381.000000	2.036826	1.943674	60.946040
4383.000000	1.679728	1.560117	44.212569
4385.000000	1.731654	1.591417	10.967860
4387.000000	1.729784	1.772036	30.848810
4389.000000	1.846721	1.964594	37.009182
4391.000000	1.461533	1.533196	27.272694
4393.000000	1.527928	1.382404	28.608150
4395.000000	1.763931	1.697201	71.975375
4397.000000	1.637828	1.663595	52.681152
4399.000000	1.593186	1.582945	24.485399
4401.000000	1.680716	1.695892	57.871107
4403.000000	1.924440	1.999227	97.663938
4405.000000	2.102178	2.328171	105.685738
4407.000000	2.168875	2.059085	134.749950
4409.000000	2.265585	2.128182	120.019299
4411.000000	2.575310	2.331848	130.479849
4413.000000	2.601527	2.460247	67.966357
4415.000000	2.529901	2.210075	114.206863
4417.000000	2.820499	2.941285	111.968802
4419.000000	2.710846	2.774564	49.059249
4421.000000	2.468487	2.255526	63.789404
4423.000000	2.501893	2.279837	94.872675
4425.000000	2.382346	2.292810	111.166734
4427.000000	2.107730	2.380801	43.088575
4429.000000	2.166296	2.025009	75.617039
4431.000000	2.279308	2.397978	111.723194
4433.000000	2.319284	2.573154	80.362852
4435.000000	2.300656	2.326630	71.530038
4437.000000	2.280126	2.261414	100.921246
4439.000000	1.904649	1.757610	84.738640
4441.000000	2.045434	2.005778	82.642235
4443.000000	1.693314	1.590828	57.635501
4445.000000	1.856750	1.827085	82.041318
4447.000000	1.409293	1.511503	82.513257
4449.000000	1.306495	1.248703	52.662830
4451.000000	1.432674	1.467213	89.462594
4453.000000	1.193996	1.243191	83.180685
4455.000000	0.829933	0.803257	68.185932
4457.000000	0.921442	0.918942	49.257522
4459.000000	0.804990	0.838798	78.760005
4461.000000	0.734081	0.692472	76.212929
4463.000000	0.692187	0.715002	38.426615
4465.000000	0.692999	0.662008	101.655827
4467.000000	0.527102	0.472998	136.801714
4469.000000	0.546954	0.580545	116.461406
4471.000000	0.562546	0.524274	97.460929
4473.000000	0.498938	0.508068	136.193992
4475.000000	0.444380	0.427332	120.513679
4477.000000	0.458937	0.430151	48.342386
4479.000000	0.438784	0.436687	96.802444
4481.000000	0.505456	0.466428	83.887357
4483.000000	0.584354	0.537386	75.159938
4485.000000	0.659708	0.591309	55.523084
4487.000000	0.710308	0.825926	105.907652
4489.000000	0.800198	0.793238	70.033936
4491.000000	0.756304	0.739368	48.611367
4493.000000	0.729211	0.804574	56.268501
4495.000000	0.999620	0.980162	80.573048
4497.000000	1.084197	1.101111	49.929208
4499.000000	1.326590	1.276951	28.706926
4501.000000	1.584080	1.581593	79.159161
4503.000000	1.886890	1.637829	50.950666
4505.000000	2.296895	2.059500	41.255503
4507.000000	2.297352	2.528192	47.745333
4509.000000	2.139382	2.201205	63.648536
4511.000000	2.398322	2.494490	54.597541
4513.000000	2.510281	2.464805	42.610851
4515.000000	2.435327	2.541357	72.224832
4517.000000	2.267581	2.331089	105.761188
4519.000000	2.322766	2.337263	51.817948
4521.000000	1.838998	1.654829	42.619308
4523.000000	1.528032	1.502356	112.861014
4525.000000	1.268294	1.426348	92.747851
4527.000000	1.147579	1.076801	58.332143
4529.000000	0.969761	0.999202	68.037344
4531.000000	0.931217	0.912481	84.279558
4533.000000	0.833653	0.827355	94.390022
4535.000000	0.867101	0.795604	61.221643
4537.000000	0.599062	0.544602	103.416411
4539.000000	0.449478	0.445677	87.931037
4541.000000	0.372892	0.352496	42.801231
4543.000000	0.379584	0.385459	32.064489
4545.000000	0.314101	0.322629	39.023640
4547.000000	0.382999	0.363883	40.058159
4549.000000	0.306056	0.283465	27.451362
4551.000000	0.306450	0.325145	53.935522
4553.000000	0.261320	0.251354	56.457471
4555.000000	0.248381	0.273547	28.355941
4557.000000	0.265272	0.278533	20.120259
4559.000000	0.237937	0.249918	32.834184
4561.000000	0.217960	0.208334	32.184704
4563.000000	0.215470	0.236495	10.247323
4565.000000	0.223068	0.206518	12.120414
4567.000000	0.219492	0.209451	10.548233
4569.000000	0.194503	0.189874	6.528262
4571.000000	0.214327	0.203467	6.193838
4573.000000	0.220377	0.248357	13.313843
4575.000000	0.199919	0.191472	10.502836
4577.000000	0.190352	0.184242	10.867007
4579.000000	0.203706	0.210676	9.697441
4581.000000	0.184393	0.184099	7.709520
4583.000000	0.200385	0.202307	1.783043
4585.000000	0.196578	0.204026	2.419873
4587.000000	0.171400	0.192137	4.965799
4589.000000	0.219794	0.214302	17.635245
4591.000000	0.195803	0.191143	17.842769
4593.000000	0.196759	0.190615	28.258767
4595.000000	0.240316	0.260528	40.846865
4597.000000	0.271466	0.250013	31.576729
4599.000000	0.253154	0.253568	12.707982
4601.000000	0.268222	0.246335	27.821967
4603.000000	0.265502	0.262598	38.212065
4605.000000	0.288720	0.275691	30.152708
4607.000000	0.273474	0.315390	40.735062
4609.000000	0.296823	0.284750	49.822536
4611.000000	0.299617	0.301327	52.763873
4613.000000	0.296241	0.287153	25.512815
4615.000000	0.348428	0.343434	51.421370
4617.000000	0.262317	0.245111	84.336842
4619.000000	0.274771	0.251597	53.929060
4621.000000	0.296434	0.292699	54.139220
4623.000000	0.277248	0.249681	108.193285
4625.000000	0.286817	0.313076	115.119678
4627.000000	0.278905	0.308928	71.443352
4629.000000	0.274426	0.272258	111.075825
4631.000000	0.294954	0.290742	153.099314
4633.000000	0.281300	0.272931	113.602374
4635.000000	0.332441	0.325884	66.934094
4637.000000	0.259973	0.285110	103.445225
4639.000000	0.297946	0.301839	78.050754
4641.000000	0.240016	0.227220	42.513084
4643.000000	0.237172	0.252864	54.305469
4645.000000	0.271401	0.274600	85.067760
4647.000000	0.291510	0.259683	63.892934
4649.000000	0.298264	0.283262	35.830862
4651.000000	0.256713	0.246665	63.612499
4653.000000	0.286496	0.263317	67.103979
4655.000000	0.307444	0.318754	55.946215
4657.000000	0.304092	0.294666	44.362427
4659.000000	0.341329	0.300733	75.531562
4661.000000	0.300074	0.285821	47.768051
4663.000000	0.324014	0.316037	27.845399
4665.000000	0.359877	0.337276	65.021448
4667.000000	0.370381	0.385299	77.359947
4669.000000	0.367266	0.328534	52.381625
4671.000000	0.379139	0.342287	47.380258
4673.000000	0.335566	0.352403	60.424612
4675.000000	0.383382	0.367598	51.129678
4677.000000	0.319361	0.339523	29.734476
4679.000000	0.376625	0.381989	30.016898
4681.000000	0.319790	0.337660	29.123688
4683.000000	0.341089	0.386192	13.735801
4685.000000	0.333911	0.336032	7.435175
4687.000000	0.344670	0.352218	2.373200
4689.000000	0.345823	0.360727	5.394220
4691.000000	0.375599	0.364763	7.388435
4693.000000	0.346353	0.350622	15.708315
4695.000000	0.335537	0.285241	17.966113
4697.000000	0.413805	0.384681	11.618737
4699.000000	0.384665	0.373151	5.062832
4701.000000	0.384132	0.374118	2.339079
4703.000000	0.370607	0.324576	2.904074
4705.000000	0.389146	0.371760	7.422308
4707.000000	0.456603	0.431561	3.444890
4709.000000	0.457916	0.537377	16.509089
4711.000000	0.448620	0.388590	29.512379
4713.000000	0.502356	0.468995	11.608136
4715.000000	0.444128	0.425034	37.071733
4717.000000	0.461021	0.432593	62.611030
4719.000000	0.599998	0.583740	43.486100
4721.000000	0.505175	0.465144	32.995668
4723.000000	0.535301	0.538100	51.673154
4725.000000	0.618808	0.677069	54.104730
4727.000000	0.649102	0.601674	31.498310
4729.000000	0.575911	0.599055	51.895024
4731.000000	0.603207	0.587913	67.222981
4733.000000	0.642945	0.670393	56.097036
4735.000000	0.717709	0.696234	42.322238
4737.000000	0.676604	0.599275	51.117327
4739.000000	0.740387	0.817781	93.804378
4741.000000	0.677584	0.656674	73.513727
4743.000000	0.754346	0.712180	75.033171
4745.000000	0.793704	0.850569	137.610228
4747.000000	0.796150	0.796812	100.434446
4749.000000	0.803796	0.726614	60.151293
4751.000000	0.770642	0.744143	116.597425
4753.000000	0.874907	0.972177	89.545255
4755.000000	0.881452	0.905517	70.391029
4757.000000	0.906809	0.950617	99.120143
4759.000000	0.822725	0.826924	123.746917
4761.000000	0.959116	0.988925	130.771351
4763.000000	1.044982	1.008053	97.703158
4765.000000	0.931102	1.065568	225.545754
4767.000000	1.080662	1.025227	302.849344
4769.000000	0.911111	1.085725	201.703705
4771.000000	0.996627	0.975134	179.060304
4773.000000	0.994376	1.055732	315.467642
4775.000000	1.002753	0.890174	296.487726
4777.000000	0.924971	0.970811	154.994590
4779.000000	1.006207	1.009466	279.978972
4781.000000	1.024004	1.000365	421.028054
4783.000000	0.970803	0.953047	307.973548
4785.000000	1.149595	1.202670	195.578631
4787.000000	0.995148	1.007298	412.987508
4789.000000	1.025537	0.986217	441.796596
4791.000000	1.084803	0.980140	227.070403
4793.000000	0.877892	0.924520	333.354791
4795.000000	0.926109	0.875442	389.874796
4797.000000	0.958212	0.834265	270.643074
4799.000000	0.880671	0.735590	126.413925
4801.000000	0.776196	0.720295	262.061976
4803.000000	0.796932	0.811429	266.793884
4805.000000	0.836033	0.815333	253.891637
4807.000000	0.779898	0.835415	306.602823
4809.000000	0.761248	0.766469	438.073289
4811.000000	0.763057	0.714717	422.172345
4813.000000	0.703258	0.682280	200.084570
4815.000000	0.756230	0.669495	444.259827
4817.000000	0.727631	0.732227	577.756409
4819.000000	0.671492	0.655279	449.425935
4821.000000	0.648093	0.622880	407.123809
4823.000000	0.626520	0.642872	743.192760
4825.000000	0.608119	0.559089	709.775390
4827.000000	0.615650	0.725455	421.979923
4829.000000	0.575035	0.622244	681.967490
