# Magnets are removed

# Scan parameters: power 16.000000 dBm, bandwidth 1.500000 Hz
# Frequency [MHz]	avg noise	std noise	peak value
3900.000000	2.284187	1.298463	5.589379
3901.000000	0.541161	0.562577	6.138750
3902.000000	0.658111	0.610039	6.924111
3903.000000	0.703460	0.688364	4.577328
3904.000000	1.009357	1.261200	3.434177
3905.000000	0.700943	0.669582	3.897066
3906.000000	0.785514	0.766133	3.840399
3907.000000	0.831965	0.833055	4.935471
3908.000000	1.008272	0.941442	5.198087
3909.000000	1.111275	1.069957	22.255446
3910.000000	1.065001	1.120252	19.370249
3911.000000	0.828518	0.897796	38.312779
3912.000000	0.816974	0.794641	69.187161
3913.000000	0.816512	0.855114	42.640009
3914.000000	0.993175	0.859464	66.895877
3915.000000	0.928216	0.905148	45.683915
3916.000000	1.026889	0.904695	78.654147
3917.000000	1.208128	1.247435	126.163286
3918.000000	1.006182	0.990771	104.442596
3919.000000	0.671124	0.612834	97.476851
3920.000000	0.855862	0.885447	131.292546
3921.000000	0.451723	0.404485	75.416746
3922.000000	0.647170	0.606154	144.357376
3923.000000	0.572217	0.609960	131.472471
3924.000000	0.779007	0.758839	65.545353
3925.000000	0.711177	0.682031	148.079492
3926.000000	0.553142	0.579807	134.678222
3927.000000	0.883329	0.904637	68.819322
3928.000000	0.890126	0.799264	126.802148
3929.000000	1.137394	1.036768	131.222269
3930.000000	0.759315	0.775880	92.118554
3931.000000	0.963179	1.035629	171.544370
3932.000000	0.577768	0.501918	107.526245
3933.000000	1.280317	1.164403	114.795277
3934.000000	0.697541	0.749736	139.436108
3935.000000	0.695424	0.735191	76.374589
3936.000000	0.609679	0.665055	100.747062
3937.000000	0.698207	0.677539	119.836405
3938.000000	0.995980	0.957999	39.840799
3939.000000	0.802239	0.830132	85.609689
3940.000000	0.421566	0.430116	94.800619
3941.000000	1.191693	1.265276	70.824115
3942.000000	0.575296	0.537201	123.694565
3943.000000	0.743674	0.740401	106.422491
3944.000000	0.775984	0.725867	129.246320
3945.000000	0.986998	0.976980	207.844669
3946.000000	0.849573	0.904535	129.982953
3947.000000	0.628530	0.647925	174.734910
3948.000000	0.985534	0.957230	233.008583
3949.000000	0.862692	0.850184	129.688108
3950.000000	1.045469	0.932063	283.921974
3951.000000	0.894329	0.880516	278.456575
3952.000000	0.783274	0.715785	173.300439
3953.000000	0.786604	0.849761	407.288550
3954.000000	0.863255	0.795489	275.233252
3955.000000	0.554283	0.554394	248.087666
3956.000000	0.770649	0.733942	428.711828
3957.000000	0.463679	0.445920	275.971246
3958.000000	0.579383	0.557945	332.051831
3959.000000	0.503909	0.519005	450.657972
3960.000000	0.524377	0.604461	266.584187
3961.000000	0.346010	0.311927	402.225985
3962.000000	0.343301	0.342378	419.098558
3963.000000	0.399220	0.405640	187.186770
3964.000000	0.446890	0.452710	356.943780
3965.000000	0.351328	0.345624	302.809624
3966.000000	0.315989	0.285664	200.913725
3967.000000	0.213207	0.194221	345.161599
3968.000000	0.206885	0.207665	270.738411
3969.000000	0.249203	0.227105	250.618313
3970.000000	0.175946	0.189584	402.507591
3971.000000	0.198041	0.210877	214.174202
3972.000000	0.173123	0.156139	354.164212
3973.000000	0.138437	0.138410	474.136967
3974.000000	0.183570	0.182037	220.483594
3975.000000	0.180431	0.176419	469.377235
3976.000000	0.152418	0.153773	499.898772
3977.000000	0.167360	0.182397	296.084180
3978.000000	0.124168	0.139207	590.682190
3979.000000	0.137013	0.136184	430.300477
3980.000000	0.114500	0.108085	376.506725
3981.000000	0.148119	0.146516	557.116570
3982.000000	0.111795	0.110517	368.224122
3983.000000	0.140159	0.139621	441.647088
3984.000000	0.161831	0.158978	632.486407
3985.000000	0.124953	0.138164	366.964779
3986.000000	0.128895	0.127812	679.077586
3987.000000	0.100119	0.104000	835.982854
3988.000000	0.109019	0.099703	394.907441
3989.000000	0.128136	0.129028	965.174611
3990.000000	0.106792	0.111627	911.200789
3991.000000	0.122522	0.115529	663.655348
3992.000000	0.165624	0.162265	1253.222562
3993.000000	0.104150	0.111488	913.692446
3994.000000	0.134952	0.143662	960.602683
3995.000000	0.102101	0.116242	1362.380751
3996.000000	0.140992	0.148711	793.286675
3997.000000	0.125862	0.134389	1178.059373
3998.000000	0.114300	0.115528	1361.655644
3999.000000	0.104074	0.112041	600.833048
4000.000000	0.117470	0.143562	1261.875660
4001.000000	0.121332	0.119885	1202.108291
4002.000000	0.113190	0.121104	695.557522
4003.000000	0.107987	0.111653	1296.860115
4004.000000	0.089180	0.080333	1060.457499
4005.000000	0.101407	0.094276	867.006871
4006.000000	0.135682	0.174091	1328.335446
4007.000000	0.101481	0.099059	816.277817
4008.000000	0.108461	0.124945	952.855192
4009.000000	0.090925	0.086714	1083.492371
4010.000000	0.130378	0.180097	533.567853
4011.000000	0.096399	0.094252	798.566604
4012.000000	0.091871	0.099453	781.764215
4013.000000	0.104924	0.106746	335.127845
4014.000000	0.089479	0.093267	665.191091
4015.000000	0.098248	0.107577	538.274986
4016.000000	0.095039	0.088383	334.362248
4017.000000	0.095238	0.099658	553.391533
4018.000000	0.090697	0.081274	380.274017
4019.000000	0.106758	0.099268	324.298627
4020.000000	0.094977	0.099267	455.565502
4021.000000	0.099137	0.096526	253.333051
4022.000000	0.103611	0.099890	359.788273
4023.000000	0.100483	0.105818	430.813886
4024.000000	0.094906	0.101257	200.886743
4025.000000	0.097941	0.087733	432.320332
4026.000000	0.093896	0.090484	445.198430
4027.000000	0.107956	0.107474	263.593839
4028.000000	0.112027	0.115191	474.740996
4029.000000	0.099788	0.099182	391.278425
4030.000000	0.101698	0.098871	315.518356
4031.000000	0.091640	0.081020	446.104520
4032.000000	0.107094	0.109292	278.069141
4033.000000	0.103776	0.097070	274.413531
4034.000000	0.090921	0.090653	295.802662
4035.000000	0.091726	0.097712	143.263554
4036.000000	0.118734	0.109034	182.945143
4037.000000	0.082261	0.070883	167.317482
4038.000000	0.113025	0.111257	73.527850
4039.000000	0.091418	0.094984	153.022604
4040.000000	0.102829	0.090483	153.764377
4041.000000	0.108619	0.091402	109.662605
4042.000000	0.100475	0.100333	215.576797
4043.000000	0.097387	0.094616	173.705225
4044.000000	0.098650	0.106106	193.233154
4045.000000	0.102005	0.105263	307.489246
4046.000000	0.112392	0.099460	199.081843
4047.000000	0.110847	0.106467	282.311804
4048.000000	0.105988	0.102226	343.045553
4049.000000	0.107010	0.098345	142.231783
4050.000000	0.102419	0.110969	313.289628
4051.000000	0.107077	0.100438	276.733201
4052.000000	0.101694	0.102042	133.230091
4053.000000	0.101982	0.109034	206.838413
4054.000000	0.103517	0.104906	142.603120
4055.000000	0.093635	0.091165	92.522952
4056.000000	0.107521	0.096438	91.735603
4057.000000	0.096008	0.104221	41.631962
4058.000000	0.114789	0.112872	33.791653
4059.000000	0.098470	0.091248	29.043755
4060.000000	0.108671	0.104182	13.410806
4061.000000	0.110854	0.106014	20.900001
4062.000000	0.114772	0.097603	25.503411
4063.000000	0.102399	0.112847	14.898592
4064.000000	0.121349	0.120975	41.808837
4065.000000	0.106441	0.105523	43.849961
4066.000000	0.127904	0.146487	35.772982
4067.000000	0.112037	0.106208	82.403265
4068.000000	0.107231	0.105515	63.847107
4069.000000	0.116103	0.106489	67.182102
4070.000000	0.106193	0.111734	107.245193
4071.000000	0.123284	0.124072	80.954409
4072.000000	0.121811	0.125726	119.562476
4073.000000	0.109368	0.109192	148.954030
4074.000000	0.115138	0.109928	72.940986
4075.000000	0.119611	0.116645	173.668057
4076.000000	0.130485	0.113865	195.078022
4077.000000	0.134156	0.124746	94.672602
4078.000000	0.117455	0.110090	243.475400
4079.000000	0.113759	0.112111	193.811579
4080.000000	0.123520	0.120407	173.883231
4081.000000	0.125656	0.121299	255.195821
4082.000000	0.132439	0.138994	174.550894
4083.000000	0.120752	0.119356	212.468490
4084.000000	0.126968	0.121551	289.415670
4085.000000	0.119772	0.118366	179.200488
4086.000000	0.135037	0.130762	319.079474
4087.000000	0.149389	0.140966	399.467163
4088.000000	0.139922	0.149146	197.484540
4089.000000	0.127318	0.121488	499.552467
4090.000000	0.146874	0.144586	482.659444
4091.000000	0.161205	0.173372	363.006890
4092.000000	0.130553	0.125107	666.113482
4093.000000	0.131035	0.134895	468.780708
4094.000000	0.137936	0.141549	433.121842
4095.000000	0.147318	0.148221	602.357215
4096.000000	0.156457	0.169524	326.267094
4097.000000	0.150369	0.173285	422.491733
4098.000000	0.148516	0.146882	485.370768
4099.000000	0.177184	0.172635	197.430494
4100.000000	0.183073	0.185386	372.209464
4101.000000	0.175804	0.175217	318.652759
4102.000000	0.181973	0.172093	173.953330
4103.000000	0.193632	0.197610	279.409747
4104.000000	0.163262	0.159405	204.587260
4105.000000	0.211010	0.234293	143.999396
4106.000000	0.207755	0.229753	215.604281
4107.000000	0.234095	0.227450	151.442740
4108.000000	0.241055	0.197255	157.030884
4109.000000	0.222195	0.220491	192.147166
4110.000000	0.276115	0.269187	97.622476
4111.000000	0.276667	0.268804	155.313054
4112.000000	0.214660	0.215589	178.615618
4113.000000	0.265590	0.271237	72.855657
4114.000000	0.276672	0.294196	182.538215
4115.000000	0.268180	0.328170	159.075792
4116.000000	0.403671	0.418292	111.141032
4117.000000	0.327664	0.310087	186.321064
4118.000000	0.405240	0.396971	136.250758
4119.000000	0.348603	0.330817	136.032971
4120.000000	0.453972	0.517510	196.538510
4121.000000	0.402661	0.465405	103.190936
4122.000000	0.492064	0.468787	144.175971
4123.000000	0.458380	0.416048	187.803458
4124.000000	0.566310	0.527465	72.829468
4125.000000	0.485422	0.432210	183.976525
4126.000000	0.508115	0.491986	201.035576
4127.000000	0.478375	0.509193	124.672288
4128.000000	0.446294	0.505006	190.045096
4129.000000	0.537320	0.470165	169.303256
4130.000000	0.484652	0.472609	133.931890
4131.000000	0.520474	0.541046	156.811702
4132.000000	0.497071	0.553024	130.319929
4133.000000	0.566780	0.518417	169.421921
4134.000000	0.627743	0.632311	205.202867
4135.000000	0.524690	0.554857	125.673628
4136.000000	0.567468	0.559712	207.537313
4137.000000	0.516551	0.483636	184.837238
4138.000000	0.501339	0.474226	104.750679
4139.000000	0.373427	0.384688	214.592146
4140.000000	0.248919	0.253052	204.976172
4141.000000	0.192870	0.194821	132.596146
4142.000000	0.181652	0.181766	251.749301
4143.000000	0.202123	0.187119	157.627780
4144.000000	0.168394	0.165388	155.247414
4145.000000	0.137163	0.130881	211.050175
4146.000000	0.124367	0.118531	112.871129
4147.000000	0.134579	0.136959	151.870057
4148.000000	0.118511	0.116756	172.543110
4149.000000	0.123819	0.120777	67.569028
4150.000000	0.119725	0.114436	138.096062
4151.000000	0.114965	0.129174	117.649150
4152.000000	0.107979	0.109091	62.550088
4153.000000	0.111576	0.102566	100.199869
4154.000000	0.087249	0.084181	78.185031
4155.000000	0.101374	0.106203	53.560109
4156.000000	0.100145	0.102762	89.631479
4157.000000	0.095004	0.085625	47.525557
4158.000000	0.106041	0.105809	60.611096
4159.000000	0.091340	0.096285	64.058749
4160.000000	0.096535	0.091027	30.220614
4161.000000	0.093472	0.086553	52.810667
4162.000000	0.099038	0.104923	55.406605
4163.000000	0.081672	0.078156	31.496217
4164.000000	0.095630	0.100559	85.877405
4165.000000	0.080346	0.084178	89.769138
4166.000000	0.082858	0.083950	68.408959
4167.000000	0.082804	0.086004	131.747582
4168.000000	0.086423	0.087469	104.834887
4169.000000	0.094133	0.088503	101.484162
4170.000000	0.087807	0.078621	143.808840
4171.000000	0.082989	0.080686	81.326937
4172.000000	0.086407	0.083622	112.330984
4173.000000	0.093347	0.107539	137.607604
4174.000000	0.081753	0.086651	63.717689
4175.000000	0.084332	0.084286	135.103884
4176.000000	0.073903	0.075030	127.357694
4177.000000	0.082856	0.087650	72.892396
4178.000000	0.083305	0.094420	126.972774
4179.000000	0.074486	0.070122	106.923344
4180.000000	0.075929	0.072938	98.864284
4181.000000	0.085608	0.078801	151.792878
4182.000000	0.093347	0.087375	108.003055
4183.000000	0.085472	0.087827	124.828982
4184.000000	0.088124	0.083562	153.868898
4185.000000	0.094782	0.090481	79.016308
4186.000000	0.080295	0.090853	139.795965
4187.000000	0.083262	0.077663	142.606299
4188.000000	0.087500	0.082108	63.323033
4189.000000	0.085789	0.076170	135.346623
4190.000000	0.085358	0.083405	125.501946
4191.000000	0.087919	0.091736	82.938680
4192.000000	0.091293	0.102814	147.185140
4193.000000	0.092096	0.085774	100.413567
4194.000000	0.094697	0.087578	92.410582
4195.000000	0.087878	0.082794	133.394786
4196.000000	0.098729	0.111106	77.109051
4197.000000	0.103511	0.110059	102.638389
4198.000000	0.086612	0.084869	125.777805
4199.000000	0.085320	0.084083	54.649631
4200.000000	0.096067	0.091900	101.848971
4201.000000	0.094249	0.088428	104.213882
4202.000000	0.114073	0.117164	64.126801
4203.000000	0.101743	0.102358	111.955444
4204.000000	0.100830	0.097805	82.935060
4205.000000	0.108545	0.097102	72.401326
4206.000000	0.099805	0.108749	101.152853
4207.000000	0.098112	0.098654	71.530484
4208.000000	0.104497	0.103724	95.457091
4209.000000	0.092275	0.096910	124.931586
4210.000000	0.107255	0.108187	68.708684
4211.000000	0.091677	0.094712	125.365957
4212.000000	0.108527	0.104496	126.083090
4213.000000	0.094793	0.085202	57.429732
4214.000000	0.079349	0.081767	139.829412
4215.000000	0.084075	0.082734	113.941637
4216.000000	0.090789	0.093043	76.564594
4217.000000	0.088045	0.080770	141.339172
4218.000000	0.102244	0.114218	104.972303
4219.000000	0.088741	0.084836	103.532145
4220.000000	0.091511	0.083768	175.229333
4221.000000	0.080459	0.070468	95.957975
4222.000000	0.082215	0.077904	157.497942
4223.000000	0.087082	0.077403	190.217055
4224.000000	0.081954	0.079227	81.027697
4225.000000	0.078731	0.069844	198.692285
4226.000000	0.078968	0.082473	191.051398
4227.000000	0.078374	0.074043	102.223127
4228.000000	0.083930	0.078257	210.597865
4229.000000	0.083123	0.076761	172.103168
4230.000000	0.077870	0.076375	132.199562
4231.000000	0.078285	0.079813	216.744481
4232.000000	0.073124	0.067920	149.860260
4233.000000	0.067795	0.071279	174.381153
4234.000000	0.078092	0.077359	232.451253
4235.000000	0.075664	0.074819	124.812693
4236.000000	0.080863	0.075911	209.749078
4237.000000	0.070736	0.067865	212.866522
4238.000000	0.070284	0.073971	101.572424
4239.000000	0.070264	0.067565	217.630072
4240.000000	0.082156	0.083205	186.851569
4241.000000	0.068992	0.062748	118.926603
4242.000000	0.071909	0.072506	219.578104
4243.000000	0.070511	0.080100	158.046627
4244.000000	0.068860	0.064036	143.454730
4245.000000	0.068654	0.064608	194.776801
4246.000000	0.065510	0.072285	114.786292
4247.000000	0.069211	0.064218	145.177277
4248.000000	0.063519	0.070989	160.741988
4249.000000	0.067579	0.067941	75.348872
4250.000000	0.060625	0.056795	147.874697
4251.000000	0.070465	0.066980	146.120750
4252.000000	0.066388	0.064055	83.284051
4253.000000	0.059636	0.059057	170.599481
4254.000000	0.063952	0.063732	137.366307
4255.000000	0.058892	0.053285	108.163136
4256.000000	0.070793	0.072485	159.490183
4257.000000	0.062140	0.066843	97.578806
4258.000000	0.062878	0.063452	116.739268
4259.000000	0.061662	0.057925	147.164146
4260.000000	0.068935	0.062330	81.158345
4261.000000	0.062210	0.061360	135.187041
4262.000000	0.060579	0.065293	154.241497
4263.000000	0.064222	0.059890	69.680918
4264.000000	0.063870	0.066931	147.829000
4265.000000	0.061476	0.061652	120.119824
4266.000000	0.072860	0.068407	81.250369
4267.000000	0.063225	0.059064	140.469610
4268.000000	0.061423	0.064206	112.478077
4269.000000	0.061501	0.066181	101.592529
4270.000000	0.060419	0.057910	151.454932
4271.000000	0.064402	0.071624	75.072274
4272.000000	0.065758	0.068252	112.024192
4273.000000	0.062599	0.065611	124.902947
4274.000000	0.059735	0.056122	54.667700
4275.000000	0.057149	0.061938	96.572098
4276.000000	0.060207	0.065203	86.361750
4277.000000	0.060086	0.060508	45.337388
4278.000000	0.060336	0.064162	68.865692
4279.000000	0.059079	0.060410	55.781787
4280.000000	0.060299	0.059997	39.740479
4281.000000	0.068338	0.065408	53.617738
4282.000000	0.064232	0.062019	27.238140
4283.000000	0.051106	0.048894	28.256387
4284.000000	0.060639	0.062594	26.390325
4285.000000	0.062578	0.066616	12.866271
4286.000000	0.061238	0.057761	17.826518
4287.000000	0.062307	0.058961	18.933342
4288.000000	0.060758	0.055803	7.483655
4289.000000	0.060885	0.061183	17.301729
4290.000000	0.057062	0.061730	13.187852
4291.000000	0.056164	0.049315	9.386813
4292.000000	0.056315	0.057799	18.029110
4293.000000	0.051049	0.050451	14.188155
4294.000000	0.054615	0.053614	12.813140
4295.000000	0.059390	0.055632	16.749638
4296.000000	0.056194	0.056393	8.809306
4297.000000	0.056471	0.055763	8.473919
4298.000000	0.058704	0.061612	12.971973
4299.000000	0.056552	0.057361	5.320845
4300.000000	0.049174	0.044699	9.190591
4301.000000	0.057003	0.053875	10.100905
4302.000000	0.056069	0.059746	6.929820
4303.000000	0.055868	0.055549	9.192861
4304.000000	0.066079	0.061010	6.057639
4305.000000	0.057322	0.060456	4.661470
4306.000000	0.054356	0.057857	7.358734
4307.000000	0.049512	0.046783	6.859837
4308.000000	0.057744	0.059532	6.984079
4309.000000	0.057263	0.054223	7.808456
4310.000000	0.052316	0.053012	5.718066
4311.000000	0.054400	0.053520	7.531050
4312.000000	0.060343	0.058966	10.639232
4313.000000	0.056886	0.056090	5.805218
4314.000000	0.053660	0.049328	14.449546
4315.000000	0.050192	0.052270	15.322085
4316.000000	0.054194	0.052983	12.140957
4317.000000	0.059248	0.059309	27.345200
4318.000000	0.059255	0.061900	24.914788
4319.000000	0.067193	0.062735	25.737468
4320.000000	0.064882	0.068550	40.147627
4321.000000	0.066147	0.066277	23.412248
4322.000000	0.071005	0.072765	38.028291
4323.000000	0.064099	0.064748	45.190860
4324.000000	0.059945	0.059895	26.065840
4325.000000	0.064517	0.065923	54.422393
4326.000000	0.058611	0.054572	65.282631
4327.000000	0.070304	0.072162	39.544076
4328.000000	0.070364	0.072022	76.952447
4329.000000	0.070712	0.074162	72.169736
4330.000000	0.060360	0.058283	56.944774
4331.000000	0.073523	0.075133	88.179822
4332.000000	0.084736	0.085047	59.875619
4333.000000	0.076594	0.073221	66.270352
4334.000000	0.075393	0.070160	79.652710
4335.000000	0.079310	0.073860	37.689484
4336.000000	0.090790	0.085571	61.392175
4337.000000	0.089842	0.091395	64.979190
4338.000000	0.085826	0.090960	26.721362
4339.000000	0.091456	0.091065	63.686776
4340.000000	0.090976	0.095665	48.265497
4341.000000	0.091519	0.088016	29.583200
4342.000000	0.081877	0.085227	54.643259
4343.000000	0.085837	0.089198	39.512041
4344.000000	0.095330	0.105179	34.945012
4345.000000	0.087864	0.086385	57.598155
4346.000000	0.088950	0.088355	34.379793
4347.000000	0.096631	0.112507	60.137374
4348.000000	0.088259	0.085401	64.548676
4349.000000	0.103614	0.102651	32.064875
4350.000000	0.098844	0.102515	78.898471
4351.000000	0.097364	0.090987	66.189418
4352.000000	0.103652	0.097441	36.914945
4353.000000	0.094774	0.086454	73.009031
4354.000000	0.085668	0.084788	55.609999
4355.000000	0.076913	0.083424	44.284199
4356.000000	0.084934	0.083909	63.957894
4357.000000	0.083397	0.078833	48.739912
4358.000000	0.103698	0.106934	50.184299
4359.000000	0.106222	0.101292	61.368409
4360.000000	0.088461	0.090395	34.490335
4361.000000	0.091609	0.090435	53.595666
4362.000000	0.091590	0.089899	56.997158
4363.000000	0.083756	0.081773	25.593595
4364.000000	0.097676	0.091759	57.513548
4365.000000	0.084905	0.096963	50.147065
4366.000000	0.078614	0.081832	34.194979
4367.000000	0.083722	0.086961	61.248604
4368.000000	0.070701	0.073406	41.576986
4369.000000	0.075176	0.075579	38.642306
4370.000000	0.076128	0.076415	53.053537
4371.000000	0.071075	0.063872	29.809632
4372.000000	0.065307	0.065090	43.300890
4373.000000	0.073103	0.067556	56.614699
4374.000000	0.065016	0.060136	21.870119
4375.000000	0.055827	0.060725	50.145593
4376.000000	0.053570	0.067385	52.321516
4377.000000	0.062251	0.056157	29.810058
4378.000000	0.068020	0.068579	56.522360
4379.000000	0.061790	0.058932	46.719051
4380.000000	0.058123	0.059647	35.438755
4381.000000	0.057748	0.052846	55.157182
4382.000000	0.057595	0.053786	38.592907
4383.000000	0.056942	0.059427	39.134969
4384.000000	0.062576	0.068042	57.331844
4385.000000	0.056019	0.057352	30.771964
4386.000000	0.064298	0.069179	45.490161
4387.000000	0.069857	0.073688	45.112472
4388.000000	0.062912	0.056950	20.494023
