# Nothing perticular

# Scan parameters: power 16.000000 dBm, bandwidth 1.500000 Hz
# Frequency [MHz]	avg noise	std noise	peak value
3900.000000	2.145044	2.597034	4.258389
3901.000000	0.330703	0.318060	1.918636
3902.000000	0.262207	0.270779	1.272745
3903.000000	0.329577	0.333726	1.111906
3904.000000	0.307960	0.300214	1.058861
3905.000000	0.322611	0.344152	0.844135
3906.000000	0.332875	0.353727	1.178208
3907.000000	0.362060	0.380230	1.051760
3908.000000	0.287104	0.370971	1.094115
3909.000000	0.283868	0.322758	1.298940
3910.000000	0.278861	0.312901	1.665197
3911.000000	0.294467	0.333536	0.951073
3912.000000	0.323558	0.330725	1.504059
3913.000000	0.320283	0.316227	2.854782
3914.000000	0.342371	0.366199	1.802202
3915.000000	0.354256	0.392651	1.428585
3916.000000	0.304680	0.291702	1.743662
3917.000000	0.320319	0.341961	2.217760
3918.000000	0.291340	0.286557	2.403346
3919.000000	0.301156	0.306608	1.791837
3920.000000	0.291893	0.312483	1.283469
3921.000000	0.306457	0.284995	1.373578
3922.000000	0.287907	0.350027	1.673926
3923.000000	0.294127	0.354989	1.583143
3924.000000	0.291296	0.299682	1.982053
3925.000000	0.320761	0.360372	2.372870
3926.000000	0.385048	0.418898	1.087133
3927.000000	0.327292	0.325772	2.370107
3928.000000	0.321755	0.346739	1.149070
3929.000000	0.368682	0.372507	1.468955
3930.000000	0.349476	0.390179	1.996757
3931.000000	0.343557	0.397496	1.462960
3932.000000	0.331283	0.420509	1.771915
3933.000000	0.288266	0.273019	3.449175
3934.000000	0.335329	0.377191	2.236135
3935.000000	0.332622	0.322371	1.440796
3936.000000	0.302064	0.305730	1.861921
3937.000000	0.291421	0.324612	2.012900
3938.000000	0.309888	0.299089	0.892346
3939.000000	0.339621	0.350381	1.233031
3940.000000	0.277008	0.286620	1.296535
3941.000000	0.311576	0.299465	2.214627
3942.000000	0.343891	0.316549	1.275881
3943.000000	0.318849	0.311605	2.082877
3944.000000	0.326747	0.394186	1.393281
3945.000000	0.333663	0.363579	1.353929
3946.000000	0.294817	0.342931	1.158188
3947.000000	0.367362	0.438584	1.573859
3948.000000	0.346403	0.363943	1.822934
3949.000000	0.366006	0.387405	2.154121
3950.000000	0.302392	0.303071	1.214695
3951.000000	0.315042	0.309554	0.895269
3952.000000	0.324640	0.361338	1.453309
3953.000000	0.318784	0.321463	1.907730
3954.000000	0.282614	0.299173	2.148904
3955.000000	0.336833	0.354544	1.581612
3956.000000	0.330281	0.338791	1.775665
3957.000000	0.302830	0.287332	1.085951
3958.000000	0.295407	0.304613	1.810145
3959.000000	0.329016	0.359157	1.159826
3960.000000	0.351060	0.326421	1.394714
3961.000000	0.341075	0.437151	1.623734
3962.000000	0.348586	0.403798	1.070418
3963.000000	0.292905	0.353756	1.328871
3964.000000	0.329582	0.348858	0.890859
3965.000000	0.469743	0.507326	2.175893
3966.000000	92.255183	90.858860	449.901345
3967.000000	230.255347	214.695235	844.561383
3968.000000	26.794275	30.068074	83.534281
3969.000000	8.069562	8.431238	30.494273
3970.000000	4.364174	4.513982	39.965448
3971.000000	2.984042	3.030305	12.280632
3972.000000	2.458715	2.586750	9.559367
3973.000000	2.022693	2.156982	21.212574
3974.000000	2.400216	2.240056	16.777102
3975.000000	2.218311	2.420042	7.438611
3976.000000	1.959564	1.799445	11.317628
3977.000000	1.904077	1.847594	8.189675
3978.000000	2.220920	2.318098	5.737754
3979.000000	1.962445	2.192764	11.284265
3980.000000	2.194851	1.983025	7.993931
3981.000000	1.935522	1.742747	13.770686
3982.000000	2.559271	2.584751	8.265835
3983.000000	2.806225	2.929992	11.798578
3984.000000	2.720859	2.513844	11.542203
3985.000000	2.542719	2.627574	8.128330
3986.000000	3.063665	3.491764	9.505701
3987.000000	3.369666	2.994798	20.646719
3988.000000	2.897439	2.896277	18.507178
3989.000000	3.769800	3.845578	12.772874
3990.000000	3.355270	3.169389	14.458412
3991.000000	4.179704	4.466752	21.888342
3992.000000	4.433008	4.483167	15.594929
3993.000000	3.570284	3.222086	16.534310
3994.000000	3.594788	3.415329	17.297735
3995.000000	3.961104	3.835857	9.539191
3996.000000	3.930955	4.184662	15.959429
3997.000000	4.398765	4.267017	22.835778
3998.000000	4.287370	4.133388	16.248112
3999.000000	4.701434	4.678868	25.881549
4000.000000	6.165122	6.907916	33.767077
4001.000000	5.008381	5.057906	23.867310
4002.000000	6.256192	5.471480	27.614302
4003.000000	6.715123	7.162559	38.381466
4004.000000	5.360193	5.604862	33.815032
4005.000000	7.083301	7.664794	46.323836
4006.000000	6.218839	6.055737	25.602985
4007.000000	6.557525	6.366250	37.553142
4008.000000	8.536510	8.631851	38.064234
4009.000000	6.362518	5.817625	18.233373
4010.000000	6.058247	5.828660	28.784156
4011.000000	6.317234	5.932835	28.333580
4012.000000	8.294768	8.273584	43.911169
4013.000000	6.493351	5.562374	20.286760
4014.000000	6.858965	6.373333	42.614651
4015.000000	9.123863	8.441231	27.624104
4016.000000	7.688209	8.074937	39.342318
4017.000000	9.954646	10.206614	40.837866
4018.000000	8.175743	7.955968	30.672001
4019.000000	6.640458	6.442227	38.378678
4020.000000	7.072893	7.369261	29.695596
4021.000000	8.806386	9.908011	51.203309
4022.000000	9.535897	8.287764	41.371897
4023.000000	7.331538	7.184371	46.290494
4024.000000	7.176765	7.277971	24.983511
4025.000000	7.559158	8.041534	23.159545
4026.000000	9.317223	9.366410	44.266243
4027.000000	9.349628	8.755337	25.934969
4028.000000	10.499227	11.393880	38.861608
4029.000000	10.185806	10.252650	56.290618
4030.000000	10.215175	10.961229	57.853747
4031.000000	8.603908	7.518983	33.382340
4032.000000	8.940727	9.176277	38.487379
4033.000000	10.284401	9.311892	59.281484
4034.000000	9.672781	10.049259	76.871576
4035.000000	8.967369	9.373975	58.074185
4036.000000	10.189126	9.615302	41.409968
4037.000000	7.376849	6.981300	47.841235
4038.000000	8.694051	8.961329	44.863306
4039.000000	9.726314	8.664033	40.014299
4040.000000	8.139939	7.216004	42.837208
4041.000000	9.094445	9.196826	39.077637
4042.000000	11.187102	10.673887	34.500187
4043.000000	6.584864	5.971724	40.008238
4044.000000	9.716479	8.528190	39.896760
4045.000000	10.157018	10.057206	49.001769
4046.000000	10.147623	10.583629	40.330001
4047.000000	7.722894	7.866682	38.790750
4048.000000	9.978834	9.293931	29.495780
4049.000000	8.175542	8.521315	35.706402
4050.000000	9.197161	10.013061	40.165654
4051.000000	6.024711	6.712027	26.129546
4052.000000	6.189833	6.047327	24.342696
4053.000000	6.312871	6.054886	20.778774
4054.000000	7.707632	7.528371	40.203836
4055.000000	6.486758	5.561032	27.653022
4056.000000	5.492777	6.166294	43.595580
4057.000000	4.746476	4.480143	20.406017
4058.000000	5.611168	5.307577	17.799627
4059.000000	4.565552	4.538720	23.393755
4060.000000	3.813562	3.972286	15.382225
4061.000000	5.196545	5.009290	24.970095
4062.000000	3.388764	3.285776	21.249511
4063.000000	4.541541	4.352620	26.908929
4064.000000	3.568782	3.297515	15.953899
4065.000000	2.965811	2.845282	22.475447
4066.000000	3.518522	3.396703	17.420612
4067.000000	2.985270	3.164243	16.386566
4068.000000	3.216558	3.007316	15.455439
4069.000000	2.710001	2.504812	11.835007
4070.000000	2.196534	1.959507	8.305333
4071.000000	2.282760	2.117890	12.506897
4072.000000	1.927098	2.083935	7.737530
4073.000000	2.337730	2.551351	7.076648
4074.000000	1.943022	1.914507	8.843028
4075.000000	1.552917	1.508605	5.731313
4076.000000	1.527880	1.632721	9.229431
4077.000000	1.077443	1.013635	4.490081
4078.000000	1.225751	1.107094	4.683301
4079.000000	1.149336	1.065838	5.086656
4080.000000	1.027224	0.959057	7.602993
4081.000000	0.967289	0.864240	3.646592
4082.000000	0.983963	1.156634	3.082912
4083.000000	0.766637	0.690785	2.317062
4084.000000	0.684911	0.649100	4.879135
4085.000000	0.694841	0.692740	3.045950
4086.000000	0.652196	0.603396	2.627301
4087.000000	0.627300	0.660245	4.638026
4088.000000	0.588022	0.584460	3.238292
4089.000000	0.664578	0.659863	2.964022
4090.000000	0.557468	0.559733	2.191586
4091.000000	0.624755	0.604226	2.341805
4092.000000	0.578947	0.504715	2.182769
4093.000000	0.566152	0.561220	2.273967
4094.000000	0.580853	0.595079	2.884716
4095.000000	0.539529	0.529272	2.426436
4096.000000	0.596661	0.576193	3.044420
4097.000000	0.595470	0.586858	2.374480
4098.000000	0.591365	0.577351	3.173430
4099.000000	0.747472	0.752384	2.021039
4100.000000	0.620476	0.632476	3.200268
4101.000000	0.665299	0.658724	2.484135
4102.000000	0.694522	0.700886	3.497551
4103.000000	0.773460	0.709194	1.901045
4104.000000	0.609775	0.543846	2.450153
4105.000000	0.673071	0.772090	3.070945
4106.000000	0.872999	0.909334	4.319735
4107.000000	0.877801	0.814154	3.445510
4108.000000	0.911018	0.960252	3.676369
4109.000000	0.860041	0.876496	3.298319
4110.000000	0.923453	0.930148	3.971203
4111.000000	1.006792	1.052927	3.788385
4112.000000	1.040005	1.044628	5.107941
4113.000000	1.063474	1.130313	6.880311
4114.000000	1.155335	1.080317	6.401958
4115.000000	1.150040	1.039242	3.578126
4116.000000	1.121025	1.127989	5.444259
4117.000000	1.281187	1.261953	4.397046
4118.000000	1.434450	1.284975	5.709718
4119.000000	1.448321	1.388357	4.640151
4120.000000	1.522676	1.815239	5.178757
4121.000000	1.881963	1.805227	7.803881
4122.000000	1.938129	1.865170	4.813666
4123.000000	2.019727	1.997154	10.874613
4124.000000	2.130442	2.145498	13.365945
4125.000000	2.092815	1.841285	5.773391
4126.000000	2.584180	2.665790	10.929516
4127.000000	2.680071	2.603999	17.367399
4128.000000	2.676508	2.918763	18.307271
4129.000000	2.894112	3.133854	15.590068
4130.000000	3.226534	3.238847	14.629514
4131.000000	3.683732	3.545180	23.677243
4132.000000	4.116199	4.454219	19.336646
4133.000000	4.087636	4.439400	23.080006
4134.000000	4.749452	4.307980	27.533118
4135.000000	5.021221	5.224598	16.016195
4136.000000	5.356385	5.153485	27.019277
4137.000000	6.146206	6.116891	23.896844
4138.000000	6.391200	6.051768	25.073038
4139.000000	7.244886	7.855599	21.957871
4140.000000	8.234914	7.867075	61.968265
4141.000000	9.155592	10.264300	43.043872
4142.000000	8.997813	8.722897	37.494987
4143.000000	11.127919	10.328982	55.635074
4144.000000	12.319236	11.613014	36.977088
4145.000000	13.390090	13.346251	64.071107
4146.000000	13.635708	15.351951	49.633790
4147.000000	14.334091	13.073548	63.634725
4148.000000	17.292108	18.613772	81.939754
4149.000000	21.163172	22.698638	120.272628
4150.000000	24.558766	25.651159	103.392772
4151.000000	27.498773	27.109789	105.901481
4152.000000	32.224272	30.819994	137.805100
4153.000000	42.597039	41.583068	133.478121
4154.000000	49.515316	47.461871	294.277871
4155.000000	61.097784	59.730171	331.219239
4156.000000	63.604987	62.646272	351.102884
4157.000000	87.582123	95.257716	439.548761
4158.000000	118.735749	104.888436	713.950814
4159.000000	115.189366	96.069486	588.764784
4160.000000	139.847215	141.076071	607.328471
4161.000000	144.985577	143.197086	953.912755
4162.000000	191.235690	192.193551	656.330898
4163.000000	224.261535	235.276911	1199.836290
4164.000000	226.975483	222.462597	1167.079937
4165.000000	240.346210	230.333677	964.539390
4166.000000	248.486579	218.375821	1172.931434
4167.000000	286.660009	267.581839	750.984895
4168.000000	314.316699	351.389153	1839.420805
4169.000000	371.667661	361.804044	1222.860457
4170.000000	320.548820	304.600674	1173.775725
4171.000000	313.672983	308.270301	1170.562026
4172.000000	234.335565	226.828777	761.751163
4173.000000	188.625192	184.945926	891.983900
4174.000000	163.118248	176.591036	461.152005
4175.000000	111.213042	121.074937	792.359776
4176.000000	92.443060	96.084025	312.764603
4177.000000	86.941772	87.967460	377.653068
4178.000000	73.695383	76.431383	337.990292
4179.000000	70.794930	74.361998	310.310000
4180.000000	67.838918	64.666421	288.189722
4181.000000	66.699687	66.569529	200.833510
4182.000000	64.202648	66.617505	272.737023
4183.000000	71.185933	65.559111	332.606789
4184.000000	87.891242	91.488025	384.130764
4185.000000	90.740719	84.331553	415.766115
4186.000000	101.506148	109.303819	647.262634
4187.000000	117.015905	118.093838	578.891651
4188.000000	114.538387	118.488638	369.508689
4189.000000	103.614394	104.604264	465.944508
4190.000000	90.398705	86.535005	444.009766
4191.000000	66.490852	71.318441	382.543939
4192.000000	48.010085	52.046179	395.583209
4193.000000	51.582124	59.698120	170.082528
4194.000000	33.822496	33.587907	163.342710
4195.000000	27.803758	27.129687	142.170717
4196.000000	22.859206	21.584284	139.835860
4197.000000	18.602455	19.000661	65.762235
4198.000000	9.966547	9.438724	52.156765
4199.000000	4.266072	3.865609	18.245288
4200.000000	0.608630	0.606218	3.773520
4201.000000	0.314026	0.353478	1.741660
4202.000000	0.311848	0.337286	1.645200
4203.000000	0.318498	0.324405	1.155940
4204.000000	0.353546	0.468935	1.646920
4205.000000	0.314053	0.348502	2.405521
4206.000000	0.302389	0.326772	1.193201
4207.000000	0.317145	0.379191	1.473200
4208.000000	0.301835	0.329360	1.278957
4209.000000	0.303205	0.312130	1.049394
4210.000000	0.339070	0.314630	1.075230
4211.000000	0.315772	0.326986	1.909315
4212.000000	0.315043	0.341809	1.107031
4213.000000	0.314483	0.348389	1.434537
4214.000000	0.302614	0.306076	1.494668
4215.000000	0.305998	0.381420	1.091089
4216.000000	0.324139	0.353542	1.216702
4217.000000	0.326710	0.340812	1.734965
4218.000000	0.323160	0.351392	0.966106
4219.000000	0.316400	0.377951	1.807127
4220.000000	0.329934	0.300208	1.348560
4221.000000	0.349950	0.374011	2.214668
4222.000000	0.290761	0.305923	1.363036
4223.000000	0.348030	0.349810	1.242325
4224.000000	0.339588	0.326049	1.715600
4225.000000	0.342683	0.389708	1.988737
4226.000000	0.416917	0.456719	1.711719
4227.000000	0.330482	0.370707	1.593588
4228.000000	0.352639	0.411344	1.591271
4229.000000	0.292927	0.321433	1.893685
4230.000000	0.319320	0.309989	1.514325
4231.000000	0.333421	0.386728	1.246991
4232.000000	0.341954	0.382442	1.223434
4233.000000	0.304458	0.377693	1.420502
4234.000000	0.330799	0.417886	1.714980
4235.000000	0.359654	0.391347	1.925120
4236.000000	0.344444	0.332243	1.785560
4237.000000	0.292795	0.294050	1.544413
4238.000000	0.356260	0.435733	2.517632
4239.000000	0.317945	0.299049	1.171932
4240.000000	0.357890	0.347497	1.351810
4241.000000	0.304687	0.307187	1.020282
4242.000000	0.327021	0.385655	1.550684
4243.000000	0.308451	0.342955	1.343912
4244.000000	0.327850	0.347840	0.835562
4245.000000	0.305332	0.303700	1.421845
4246.000000	0.305637	0.280775	2.014198
4247.000000	0.333398	0.348128	1.278731
4248.000000	0.347458	0.396231	2.871704
4249.000000	0.281661	0.260287	1.664412
4250.000000	0.314384	0.335776	2.545428
4251.000000	0.286804	0.348003	2.540754
4252.000000	0.281127	0.322301	1.214780
4253.000000	0.329950	0.321217	1.378744
4254.000000	0.339780	0.350683	1.267136
4255.000000	0.309658	0.422964	1.857005
4256.000000	0.361066	0.440259	1.429737
4257.000000	0.312643	0.349444	1.893544
4258.000000	0.331813	0.386445	1.780314
4259.000000	0.327167	0.350994	1.298222
4260.000000	0.362600	0.377136	1.494170
4261.000000	0.325004	0.376035	1.501216
4262.000000	0.347577	0.404998	1.238121
4263.000000	0.337337	0.342579	1.139981
4264.000000	0.330699	0.320208	1.486828
4265.000000	0.301613	0.298819	1.586846
4266.000000	0.358595	0.369999	2.717255
4267.000000	0.291621	0.269375	0.749353
4268.000000	0.309437	0.325531	2.237016
4269.000000	0.340309	0.423892	1.624251
4270.000000	0.334390	0.353529	1.148289
4271.000000	0.375298	0.466106	1.291727
4272.000000	0.319064	0.352234	1.549082
4273.000000	0.341064	0.379714	1.276784
4274.000000	0.369911	0.356503	2.017148
4275.000000	0.298451	0.395623	1.075052
4276.000000	0.332391	0.434539	1.962761
4277.000000	0.341920	0.356261	1.148044
4278.000000	0.319613	0.377576	1.406641
4279.000000	0.334323	0.341702	0.931989
4280.000000	0.340159	0.400038	1.450395
4281.000000	0.351343	0.365344	1.515452
4282.000000	0.297896	0.338516	1.282244
4283.000000	0.337011	0.428830	1.154837
4284.000000	0.310763	0.313289	2.429232
4285.000000	0.365600	0.358396	1.060733
4286.000000	0.357248	0.410912	1.260109
4287.000000	0.356199	0.391997	2.057541
4288.000000	0.292765	0.299503	1.199307
4289.000000	0.342801	0.373959	1.516674
4290.000000	0.358049	0.373104	1.934694
4291.000000	0.301164	0.331975	1.248932
4292.000000	0.307345	0.320145	1.413361
4293.000000	0.277166	0.286016	1.207020
4294.000000	0.322841	0.399803	1.914013
4295.000000	0.344367	0.330836	1.403794
4296.000000	0.303486	0.285429	1.334276
4297.000000	0.324934	0.330281	1.222753
4298.000000	0.346530	0.420116	1.184652
4299.000000	0.344499	0.346127	1.130095
4300.000000	0.329764	0.367333	1.698634
4301.000000	0.316061	0.324894	1.798036
4302.000000	0.354543	0.413160	1.450634
4303.000000	0.322457	0.339627	3.518712
4304.000000	0.327909	0.317550	2.017107
4305.000000	0.301612	0.283599	0.875213
4306.000000	0.290292	0.281330	1.902262
4307.000000	0.373134	0.424309	1.613592
4308.000000	0.289900	0.322978	1.684781
4309.000000	0.353515	0.394306	1.932850
4310.000000	0.366389	0.642974	0.986158
4311.000000	0.304305	0.352535	2.136260
4312.000000	0.315635	0.365057	2.010624
4313.000000	0.321096	0.356843	2.000192
4314.000000	0.305060	0.450628	1.340680
4315.000000	0.338907	0.375817	1.372893
4316.000000	0.333908	0.346748	3.893611
4317.000000	0.300347	0.289319	1.182389
4318.000000	0.341896	0.367433	1.266350
4319.000000	0.363196	0.380693	1.875342
4320.000000	0.334383	0.393064	1.738242
4321.000000	0.343116	0.374913	1.391870
4322.000000	0.346080	0.443930	2.272430
4323.000000	0.324639	0.335383	1.492500
4324.000000	0.382770	0.419203	1.225874
4325.000000	0.317434	0.309619	2.115790
4326.000000	0.332866	0.364688	1.919462
4327.000000	0.336930	0.329450	1.289627
4328.000000	0.324704	0.356694	1.476533
4329.000000	0.353491	0.368000	1.566140
4330.000000	0.337594	0.333269	1.953262
4331.000000	0.316143	0.382061	1.029110
4332.000000	0.342109	0.363945	1.998784
4333.000000	0.299508	0.368377	1.284928
4334.000000	0.331781	0.350152	0.904713
4335.000000	0.310517	0.331366	1.498530
4336.000000	0.357389	0.374116	1.357732
4337.000000	0.319845	0.319925	1.308167
4338.000000	0.358465	0.337924	1.122835
4339.000000	0.346182	0.529091	3.374598
4340.000000	0.359398	0.341281	1.607917
4341.000000	0.320886	0.342975	1.411325
4342.000000	0.304618	0.409621	1.192765
4343.000000	0.311881	0.318034	1.479403
4344.000000	0.294567	0.284589	3.420668
4345.000000	0.290426	0.278124	2.128005
4346.000000	0.321623	0.339284	1.061081
4347.000000	0.331448	0.319942	1.438636
4348.000000	0.314986	0.352704	1.919764
4349.000000	0.340481	0.330218	1.106357
4350.000000	0.320624	0.332084	1.046340
4351.000000	0.346869	0.340330	1.850985
4352.000000	0.291794	0.292872	1.351474
4353.000000	0.349020	0.432128	1.211751
4354.000000	0.312369	0.444426	1.305751
4355.000000	0.315912	0.326398	1.272752
4356.000000	0.316302	0.301659	1.452472
4357.000000	0.334814	0.316915	1.209115
4358.000000	0.314246	0.347964	1.344221
4359.000000	0.310354	0.322808	2.267481
4360.000000	0.282237	0.324533	1.243994
4361.000000	0.318688	0.367324	1.602935
4362.000000	0.303897	0.344284	1.232355
4363.000000	0.321889	0.354006	1.150311
4364.000000	0.308775	0.286522	1.914293
4365.000000	0.330836	0.325171	1.866237
4366.000000	0.301779	0.343127	1.381664
4367.000000	0.319298	0.445296	2.062832
4368.000000	0.332098	0.386986	1.465884
4369.000000	0.313753	0.324707	1.813738
4370.000000	0.336519	0.312592	1.440507
4371.000000	0.312952	0.374768	1.296265
4372.000000	0.357294	0.436340	2.470450
4373.000000	0.310601	0.323812	1.264777
4374.000000	0.293868	0.335190	1.997832
4375.000000	0.305006	0.363899	1.966057
4376.000000	0.297308	0.336539	2.002173
4377.000000	0.291697	0.286210	0.982834
4378.000000	0.305949	0.346532	2.113241
4379.000000	0.314274	0.328459	1.477403
4380.000000	0.297379	0.351651	1.534738
4381.000000	0.372032	0.370528	1.103902
4382.000000	0.349493	0.416622	1.154386
4383.000000	0.331634	0.375202	1.900934
4384.000000	0.337883	0.357207	2.628634
4385.000000	0.273681	0.286360	2.330287
4386.000000	0.332097	0.362041	3.095173
4387.000000	0.332457	0.354137	2.563865
4388.000000	0.330323	0.385175	4.234922
4389.000000	0.340527	0.371764	1.774405
4390.000000	0.331684	0.359399	3.830140
4391.000000	0.321956	0.311878	3.991649
4392.000000	0.287578	0.316982	3.515886
4393.000000	0.295856	0.348469	2.839511
4394.000000	0.311999	0.330183	4.122601
4395.000000	0.325410	0.351473	1.635418
4396.000000	0.318128	0.286444	1.481332
4397.000000	0.325959	0.317051	1.347373
