# uW amps removed from audio path!

# Scan parameters: power 16.000000 dBm, bandwidth 1.500000 Hz
# Frequency [MHz]	avg noise	std noise	peak value
3900.000000	17.695529	15.036633	1083.285107
3901.000000	10.368390	11.453758	1883.779641
3902.000000	9.641723	9.390246	956.131873
3903.000000	11.001669	10.200565	1803.034464
3904.000000	9.573416	9.562667	1649.336620
3905.000000	9.250055	9.007299	1315.419030
3906.000000	9.998219	9.417908	2100.898775
3907.000000	10.164328	9.332939	1358.230633
3908.000000	9.898253	8.774091	1570.426800
3909.000000	12.043874	11.438721	2316.398590
3910.000000	9.735219	9.383689	1343.103648
3911.000000	10.333483	10.638177	2181.180680
3912.000000	10.154702	10.559239	1940.713913
3913.000000	9.924829	10.134022	863.599354
3914.000000	10.629355	10.424381	2448.317474
3915.000000	10.041987	9.634504	2046.961279
3916.000000	11.857389	12.366951	1425.062442
3917.000000	9.306969	9.002195	2741.724124
3918.000000	9.158377	9.809892	1669.801761
3919.000000	9.278009	9.677522	1801.601821
3920.000000	10.106597	9.135811	2930.544350
3921.000000	9.926760	8.789991	1616.071248
3922.000000	9.906254	11.093156	2200.042717
3923.000000	9.626450	10.262661	2555.108542
3924.000000	10.008215	9.336631	1053.750215
3925.000000	9.650313	9.577657	2177.262251
3926.000000	9.625105	9.493732	1968.326372
3927.000000	9.541408	10.813660	902.028141
3928.000000	9.005658	8.531719	1843.163627
3929.000000	9.402915	10.409653	1445.723859
3930.000000	9.695869	9.347531	1391.364745
3931.000000	9.282517	8.969856	1439.565372
3932.000000	10.251953	8.449057	1260.094898
3933.000000	10.092292	10.532037	1687.421914
3934.000000	9.273825	9.206728	1647.984931
3935.000000	9.541046	10.360832	904.228568
3936.000000	9.475775	8.983176	1305.007367
3937.000000	9.748809	11.107405	1075.352285
3938.000000	12.274647	14.422140	772.522300
3939.000000	10.337786	10.463739	1356.399367
3940.000000	8.780286	9.016612	1388.329808
3941.000000	8.291741	8.008419	1066.658544
3942.000000	10.326897	10.465355	1830.766231
3943.000000	9.101051	9.302045	1249.007042
3944.000000	9.316992	8.971339	1158.695915
3945.000000	9.129524	8.981533	1887.719098
3946.000000	9.303539	9.337806	1083.037507
3947.000000	8.821815	8.614398	1449.318631
3948.000000	9.458265	9.214203	2245.013125
3949.000000	9.148425	9.329545	1019.015229
3950.000000	8.815418	8.983395	2209.939417
3951.000000	10.157167	9.791308	2433.709929
3952.000000	9.724299	10.629981	1313.040793
3953.000000	8.837322	9.768286	2789.618397
3954.000000	9.647397	8.958831	1873.748800
3955.000000	9.558284	10.072116	1581.220984
3956.000000	9.131784	9.121397	2596.026543
3957.000000	8.499102	8.291974	1833.223880
3958.000000	9.918063	8.877423	2153.653557
3959.000000	9.292603	9.286004	2385.129720
3960.000000	8.369759	7.607930	1157.061615
3961.000000	9.544181	9.300285	1884.484128
3962.000000	9.210045	9.571011	1935.597233
3963.000000	8.574078	8.947244	958.031637
3964.000000	8.990123	9.658415	2017.172621
3965.000000	8.907151	9.276703	1564.157318
3966.000000	9.578877	9.418741	1118.150288
3967.000000	9.799853	9.972652	2178.463797
3968.000000	8.354917	8.746530	1488.592248
3969.000000	8.908860	8.587092	1616.780304
3970.000000	8.967268	8.581366	2061.187774
3971.000000	8.012115	7.552567	1143.670930
3972.000000	9.452349	8.935860	1486.286399
3973.000000	8.337378	8.431590	2269.579248
3974.000000	8.479931	8.262716	860.243413
3975.000000	8.381015	8.374892	1530.149526
3976.000000	8.241017	8.167131	1679.086513
3977.000000	8.611882	8.328383	876.349756
3978.000000	8.428969	8.925845	1769.256099
3979.000000	8.145384	8.365073	1489.864049
3980.000000	8.793901	8.013964	1161.808338
3981.000000	9.489970	11.146345	2054.243467
3982.000000	8.260583	9.011047	1119.345813
3983.000000	9.415981	8.335459	1221.462745
3984.000000	8.317953	7.710491	1534.435794
3985.000000	9.316128	8.165051	642.837201
3986.000000	9.302938	8.659404	1129.583718
3987.000000	8.515732	7.626057	1142.579871
3988.000000	9.171864	9.159389	701.983664
3989.000000	9.248157	8.949744	1656.263747
3990.000000	7.840721	9.146408	1263.816319
3991.000000	8.392479	8.356893	1178.390555
3992.000000	9.325702	8.905231	1522.790755
3993.000000	8.983958	7.973976	1490.951734
3994.000000	8.272143	7.756645	1280.589880
3995.000000	8.883863	9.226989	1677.140284
3996.000000	9.019287	9.268107	990.738547
3997.000000	9.163278	8.635356	1306.834490
3998.000000	9.000073	8.693891	1697.829521
3999.000000	9.278217	8.632838	675.316008
4000.000000	9.157930	9.404189	1829.086291
4001.000000	8.024307	8.725655	1638.189756
4002.000000	8.363382	7.599150	888.113152
4003.000000	8.991984	7.879168	1747.379980
4004.000000	9.174909	8.829052	1585.429721
4005.000000	8.981197	9.945077	1412.830354
4006.000000	8.264077	8.428083	2404.284311
4007.000000	7.760812	7.958250	1539.805562
4008.000000	8.394357	7.727942	1744.125892
4009.000000	8.229382	9.087078	2182.292207
4010.000000	8.615872	9.145630	1184.315868
4011.000000	8.691298	7.555589	1725.212236
4012.000000	8.824026	9.224141	1648.224168
4013.000000	7.936216	7.194452	1008.533664
4014.000000	9.883635	9.835828	1706.865927
4015.000000	8.256219	9.100153	1218.194151
4016.000000	7.904388	8.629746	987.189295
4017.000000	9.244443	8.581392	1442.994955
4018.000000	9.082878	8.586635	905.741465
4019.000000	7.697894	7.843585	873.370603
4020.000000	8.943592	8.750170	1081.476960
4021.000000	9.732455	8.943975	841.946506
4022.000000	8.596647	8.440507	666.619696
4023.000000	8.416285	7.961742	1255.842464
4024.000000	9.152400	8.691672	430.814805
4025.000000	8.371491	8.617502	1355.797478
4026.000000	7.179573	7.388072	1131.841076
4027.000000	7.979051	8.473225	804.025044
4028.000000	8.558547	9.461961	1037.673785
4029.000000	7.895139	7.708574	1074.052466
4030.000000	8.486924	9.413406	1052.959292
4031.000000	8.354610	7.896207	1440.440164
4032.000000	8.786113	9.180184	867.240965
4033.000000	9.247933	8.860478	1173.976030
4034.000000	9.103818	9.270577	1411.133780
4035.000000	8.359592	7.784686	762.333189
4036.000000	8.512701	8.463279	1003.737397
4037.000000	9.047086	9.049229	1057.038549
4038.000000	8.460307	7.674178	540.087541
4039.000000	8.310840	7.591399	980.631845
4040.000000	9.034257	8.709953	964.314303
4041.000000	8.632827	8.972977	729.454429
4042.000000	8.381115	10.725135	974.996577
4043.000000	9.204285	8.789763	843.423250
4044.000000	8.194897	8.205961	754.195098
4045.000000	8.329952	8.096341	1253.174145
4046.000000	8.160944	8.268487	728.598908
4047.000000	7.639170	7.254306	884.217653
4048.000000	8.776476	8.261184	1139.258021
4049.000000	8.876503	9.243250	527.528827
4050.000000	8.334458	8.630537	979.289367
4051.000000	9.084233	10.217847	1292.125816
4052.000000	10.056151	9.526604	692.333545
4053.000000	8.703102	8.336834	1246.486545
4054.000000	9.304911	9.059821	1078.851817
4055.000000	8.753891	9.293799	1105.439240
4056.000000	9.713347	10.858509	1403.396430
4057.000000	9.655753	8.641196	737.135821
4058.000000	8.698800	8.494811	882.312760
4059.000000	10.554538	11.197602	954.040887
4060.000000	9.424211	8.959471	568.104798
4061.000000	8.612851	8.411620	953.960561
4062.000000	9.460189	9.805295	1042.954301
4063.000000	8.565447	8.082881	550.229053
4064.000000	10.399484	10.541970	890.596030
4065.000000	9.986912	10.011137	782.053939
4066.000000	8.893286	9.196313	485.099990
4067.000000	9.218965	8.891086	1001.694929
4068.000000	10.112907	9.607688	609.573390
4069.000000	9.494537	10.110919	491.591476
4070.000000	9.475629	9.385421	715.494787
4071.000000	10.177091	9.618690	275.042950
4072.000000	9.965354	9.349087	782.287290
4073.000000	8.792116	8.421914	614.219699
4074.000000	10.129897	10.740610	397.357328
4075.000000	10.777889	9.713631	499.310875
4076.000000	9.514018	9.849766	665.557422
4077.000000	9.059842	9.182896	441.435170
4078.000000	9.826633	9.460152	757.669950
4079.000000	10.368595	11.240606	415.612210
4080.000000	8.066045	8.665484	294.570250
4081.000000	8.823499	8.200031	525.217233
4082.000000	9.389352	9.092641	282.022334
4083.000000	9.813960	9.754713	401.552885
4084.000000	9.851117	10.427720	301.534382
4085.000000	9.991553	11.493770	136.460695
4086.000000	9.470261	9.089512	305.721748
4087.000000	10.583552	9.986820	358.874707
4088.000000	11.266106	10.222424	218.365101
4089.000000	10.841438	10.827893	431.731114
4090.000000	10.211701	10.202079	255.620352
4091.000000	11.062309	10.619676	224.703774
4092.000000	10.282461	10.738891	367.044343
4093.000000	9.820034	9.731212	362.545256
4094.000000	10.731618	9.326782	428.990391
4095.000000	10.729136	10.390490	824.632721
4096.000000	11.281034	11.239466	426.003704
4097.000000	10.925815	10.777366	594.084728
4098.000000	11.129771	11.217698	909.024052
4099.000000	10.215235	9.751057	519.684067
4100.000000	11.617060	11.042990	941.265171
4101.000000	10.159640	10.189614	937.971354
4102.000000	10.523803	9.642136	464.774550
4103.000000	10.080327	10.362692	957.166822
4104.000000	10.625855	9.579840	636.286874
4105.000000	11.859779	12.126159	749.195409
4106.000000	11.202933	12.169294	651.908675
4107.000000	11.430663	11.420412	531.569154
4108.000000	10.986541	10.729791	446.835971
4109.000000	11.266761	10.247525	594.059174
4110.000000	10.529210	10.544349	221.924319
4111.000000	12.564318	12.262929	476.175085
4112.000000	10.853908	10.603962	308.410853
4113.000000	9.549265	9.329849	224.308591
4114.000000	10.610609	10.246206	508.334478
4115.000000	11.842138	13.128962	422.264350
4116.000000	12.080274	11.718124	254.139366
4117.000000	10.645858	10.125802	372.808949
4118.000000	11.017151	9.464505	267.573969
4119.000000	11.819087	11.226162	322.007296
4120.000000	11.824854	11.591362	241.436836
4121.000000	12.255395	10.774187	105.980132
4122.000000	10.735256	10.321107	127.777928
4123.000000	12.223810	12.322223	125.133814
4124.000000	11.677356	10.988310	127.987575
4125.000000	12.364788	12.052343	133.480476
4126.000000	11.413398	10.721818	52.287110
4127.000000	11.400551	11.976180	40.094793
4128.000000	10.034882	10.318950	120.154179
4129.000000	12.018630	11.800423	39.410142
4130.000000	10.375572	9.794615	55.818366
4131.000000	10.339021	11.082549	62.590853
4132.000000	10.381920	10.386869	56.721884
4133.000000	11.055392	11.904726	65.383304
4134.000000	11.919729	11.766585	41.159841
4135.000000	10.463958	10.353769	65.211082
4136.000000	9.605228	9.910847	67.884097
4137.000000	10.441762	9.873530	64.078055
4138.000000	9.734130	9.586924	61.086129
4139.000000	9.894525	11.739835	53.196123
4140.000000	10.979928	10.333018	65.198603
4141.000000	12.636333	12.277248	78.733203
4142.000000	10.924068	11.655329	95.239412
4143.000000	10.927466	10.437768	104.316736
4144.000000	9.950030	9.740406	94.112996
4145.000000	11.788233	11.121295	57.568605
4146.000000	9.959337	11.778089	30.359715
4147.000000	9.921871	9.457616	49.456707
4148.000000	11.092693	10.627133	41.198657
4149.000000	10.513825	9.787557	37.917907
4150.000000	11.259334	10.055667	100.591633
4151.000000	9.803786	9.551199	47.867079
4152.000000	10.141262	9.077022	60.336718
4153.000000	9.260831	8.102167	38.757403
4154.000000	9.745011	9.121946	41.632759
4155.000000	9.674140	9.611896	82.168046
4156.000000	9.030082	8.886733	44.148040
4157.000000	10.846146	10.782769	53.283811
4158.000000	9.924328	11.443016	85.181092
4159.000000	10.544190	10.691681	66.528972
4160.000000	10.045621	10.242093	73.669637
4161.000000	10.337480	10.434792	40.999716
4162.000000	10.957307	11.014757	64.011762
4163.000000	10.142348	9.584274	57.236078
4164.000000	9.585665	9.005460	69.666822
4165.000000	11.103621	10.701985	36.273313
4166.000000	9.929409	9.749503	55.925336
4167.000000	10.112132	8.143980	32.829653
4168.000000	10.520055	10.290169	75.697233
4169.000000	9.469418	8.014302	72.047847
4170.000000	9.229839	10.434044	81.803337
4171.000000	9.535705	9.840288	64.894797
4172.000000	9.860923	8.866135	42.992865
4173.000000	10.889583	11.038712	88.732793
4174.000000	9.976526	9.509521	45.957404
4175.000000	9.898108	10.179365	57.392499
4176.000000	10.698924	9.522880	52.419754
4177.000000	9.597288	9.235064	52.258196
4178.000000	9.684199	9.608389	117.933592
4179.000000	9.847760	9.120679	106.581466
4180.000000	11.036885	9.993886	47.597593
4181.000000	10.177142	9.194587	115.422125
4182.000000	10.247546	9.053628	74.700287
4183.000000	9.220004	9.079474	50.970546
4184.000000	9.875611	9.716996	92.332193
4185.000000	9.208216	8.040767	61.570673
4186.000000	9.473782	8.108218	32.814510
4187.000000	9.500890	10.475557	161.879700
4188.000000	10.762358	10.544945	46.324792
4189.000000	8.006503	7.143294	84.138011
4190.000000	8.277293	7.969342	75.732916
4191.000000	8.519581	8.801139	63.927677
4192.000000	9.213182	10.291718	56.302943
4193.000000	8.107336	7.937019	40.896043
4194.000000	8.863307	9.337093	38.804811
4195.000000	8.946614	9.030512	77.203881
4196.000000	9.645037	10.162700	34.539444
4197.000000	8.005000	8.493487	56.283028
4198.000000	7.925126	7.666606	89.124983
4199.000000	9.099033	8.333195	47.196669
4200.000000	8.621642	8.907811	84.362801
4201.000000	8.313826	8.896711	62.444650
4202.000000	8.889333	9.025231	99.192524
4203.000000	8.138203	7.405126	71.264491
4204.000000	9.271554	9.705983	58.639534
4205.000000	8.766675	8.814415	38.959317
4206.000000	8.076417	7.294744	76.517758
4207.000000	8.870822	9.716184	40.589394
4208.000000	8.821834	7.960174	52.815115
4209.000000	7.318247	7.654297	80.099535
4210.000000	8.531121	8.405193	41.957151
4211.000000	7.606854	7.269462	80.018034
4212.000000	8.215017	8.528831	39.403179
4213.000000	7.598640	8.212221	34.804917
4214.000000	7.853007	7.190154	38.801170
4215.000000	7.295408	6.703452	36.414984
4216.000000	7.742811	7.503450	28.031227
4217.000000	7.801654	7.453041	37.586864
4218.000000	6.675302	6.433356	39.855535
4219.000000	7.378985	7.648873	53.919771
4220.000000	7.672180	7.630933	22.233203
4221.000000	7.056678	7.310013	31.552892
4222.000000	7.487333	7.011227	25.158643
4223.000000	6.832576	7.423133	44.744280
4224.000000	7.257464	7.220195	34.658911
4225.000000	7.641740	6.941104	55.962863
4226.000000	7.040239	7.381442	40.003510
4227.000000	6.263872	6.309699	37.816567
4228.000000	7.279321	7.616768	40.951583
4229.000000	7.179867	7.151098	20.175570
4230.000000	6.806270	6.553710	73.569058
4231.000000	7.563338	7.399837	37.503574
4232.000000	6.527139	6.135647	36.606894
4233.000000	6.995651	6.377953	30.072986
4234.000000	6.897845	6.515203	40.770600
4235.000000	8.311059	7.914080	19.103530
4236.000000	7.164800	7.157400	40.710871
4237.000000	7.141192	7.474938	33.195295
4238.000000	7.959426	7.988333	33.237036
4239.000000	7.480718	7.270301	27.461103
4240.000000	8.044414	9.104570	34.802839
4241.000000	7.612286	7.584493	22.356572
4242.000000	6.798375	6.095200	30.460568
4243.000000	7.265493	7.112896	43.067088
4244.000000	6.748005	6.765411	33.141755
4245.000000	7.068987	7.127069	26.749392
4246.000000	6.848566	6.618522	37.985851
4247.000000	6.781594	6.886113	37.546405
4248.000000	7.401511	7.044349	17.891553
4249.000000	6.709654	7.518168	43.674519
4250.000000	6.984061	6.707748	40.877347
4251.000000	7.800130	8.094651	27.848350
4252.000000	7.735685	7.727517	28.725904
4253.000000	7.927338	8.156241	31.356388
4254.000000	8.146638	6.800429	46.704859
4255.000000	7.814509	7.798270	39.295084
4256.000000	7.311417	7.542647	31.358625
4257.000000	6.936419	6.172111	45.251413
4258.000000	8.061119	8.829431	24.657445
4259.000000	8.515416	9.407715	30.715235
4260.000000	6.743969	6.070076	48.474707
4261.000000	6.941584	5.954484	17.716366
4262.000000	8.789262	9.488777	38.532351
4263.000000	8.438022	8.686393	53.158701
4264.000000	7.678506	7.516539	26.701511
4265.000000	8.543023	8.807150	36.608799
4266.000000	7.772350	7.451035	56.612224
4267.000000	7.050958	7.038932	56.023346
4268.000000	7.426793	7.269286	54.547547
4269.000000	7.603350	7.023152	50.957581
4270.000000	7.525664	7.727469	50.943998
4271.000000	7.348670	7.169655	42.213664
4272.000000	7.687171	6.906031	76.750494
4273.000000	7.666805	6.762092	41.156998
4274.000000	7.565569	8.492082	30.482607
4275.000000	7.989951	7.883097	51.605594
4276.000000	8.619034	8.663391	27.965620
4277.000000	6.357786	6.323430	27.932954
4278.000000	7.216408	7.250029	65.776641
4279.000000	7.544210	7.685690	33.944565
4280.000000	7.017255	8.429072	45.216320
4281.000000	7.329931	7.208905	85.915947
4282.000000	7.925690	7.697810	50.612704
4283.000000	7.580087	6.982037	44.371766
4284.000000	7.543970	7.651507	72.275546
4285.000000	7.388251	7.508380	64.466908
4286.000000	7.529114	8.022513	60.361149
4287.000000	8.277072	8.104830	63.760533
4288.000000	7.781135	7.521198	55.863430
4289.000000	8.835942	8.964085	54.568143
4290.000000	8.432713	7.693058	49.341782
4291.000000	8.433665	9.254787	74.145825
4292.000000	8.035581	8.118018	53.412459
4293.000000	7.289639	7.876235	66.128754
4294.000000	7.286773	7.315724	49.776322
4295.000000	8.661992	8.338327	127.695813
4296.000000	6.978279	7.126374	114.311385
4297.000000	7.271766	7.620885	146.780017
4298.000000	6.874385	6.956039	90.949189
4299.000000	8.323668	8.697155	68.287598
4300.000000	7.984619	8.554917	185.495944
4301.000000	7.853600	7.261270	263.506738
4302.000000	8.311656	9.032921	93.481193
4303.000000	7.813586	8.394560	249.495816
4304.000000	7.559389	7.564381	181.500884
4305.000000	7.920728	8.020879	103.611150
4306.000000	7.945226	8.200396	170.759267
4307.000000	8.857034	9.023688	228.909171
4308.000000	7.918834	7.539700	191.776745
4309.000000	8.199565	8.414768	145.655989
4310.000000	8.697952	7.939653	88.449803
4311.000000	8.294695	7.906337	118.237182
4312.000000	9.773934	10.460513	152.778338
4313.000000	8.251889	8.927095	142.062437
4314.000000	9.223956	8.329039	284.132362
4315.000000	8.381213	8.354082	95.234873
4316.000000	9.737759	9.466823	63.979176
4317.000000	8.261234	7.970480	131.444508
4318.000000	7.834327	7.505660	99.081053
4319.000000	10.139697	10.404662	151.672362
4320.000000	10.134080	10.242291	134.083671
4321.000000	8.401135	8.188222	141.409713
4322.000000	9.287511	9.659197	115.525875
4323.000000	10.923760	11.116709	135.273736
4324.000000	10.073686	9.818056	36.282204
4325.000000	9.160139	8.546911	66.456413
4326.000000	9.859503	10.466126	110.449793
4327.000000	9.475985	9.341201	110.764362
4328.000000	9.082234	9.472615	90.645492
4329.000000	10.354140	10.154163	55.656217
4330.000000	9.776207	9.653587	59.827692
4331.000000	8.753240	7.844395	68.119733
4332.000000	8.598126	9.165007	53.925447
4333.000000	10.548365	11.163517	93.470747
4334.000000	10.008194	10.617029	74.412392
4335.000000	8.623926	9.028880	40.554442
4336.000000	10.511279	10.025394	58.953707
4337.000000	9.889958	9.320325	42.793177
4338.000000	10.157443	9.501425	41.793717
4339.000000	11.319145	12.609058	37.551767
4340.000000	10.357074	11.242580	44.800625
4341.000000	10.465119	9.813533	66.406634
4342.000000	10.311617	9.574621	87.791986
4343.000000	9.271828	9.507786	41.693905
4344.000000	12.009126	11.039907	35.143363
4345.000000	10.448643	10.220725	51.597716
4346.000000	9.759607	9.780623	46.747579
4347.000000	10.196837	9.951775	46.217178
4348.000000	10.522896	9.855988	58.589668
4349.000000	11.355475	11.288697	35.117118
4350.000000	11.849460	10.996591	46.467754
4351.000000	9.788216	9.540916	71.995576
4352.000000	10.690019	11.060064	58.508320
4353.000000	10.377700	11.362208	46.813337
4354.000000	10.685830	10.689568	55.609844
4355.000000	11.115238	10.416455	42.053894
4356.000000	11.027535	10.121649	94.548175
4357.000000	11.328763	11.726153	61.062917
4358.000000	10.561565	10.774785	108.233340
4359.000000	9.920599	9.876005	52.551086
4360.000000	10.420071	10.878945	49.607269
4361.000000	11.671918	11.814517	135.408483
4362.000000	10.086136	9.757796	84.721244
4363.000000	11.729634	10.266978	47.665753
4364.000000	10.870682	10.426367	42.946289
4365.000000	10.672789	10.420689	54.505827
4366.000000	11.847143	11.373569	45.303583
4367.000000	11.318676	11.436605	85.642773
4368.000000	10.249932	9.951962	73.206769
4369.000000	10.576580	10.935571	48.497720
4370.000000	10.725181	11.005903	55.035467
4371.000000	9.954728	11.024663	46.193074
4372.000000	10.022978	10.191990	64.370262
4373.000000	9.854820	9.927861	58.295611
4374.000000	12.577248	12.901807	112.114932
4375.000000	11.229044	10.110751	91.775148
4376.000000	11.744555	11.870443	41.027479
4377.000000	10.741024	11.347829	62.152617
4378.000000	9.983939	9.630430	60.712628
